LabVIEW Measurement	
Writer_Version	2
Reader_Version	2
Separator	Tab
Decimal_Separator	.
Multi_Headings	No
X_Columns	No
Time_Pref	Absolute
Operator	lvuser
Date	2021/05/25
Time	15:50:10.254615487
***End_of_Header***	
	
Channels	5					
Samples	2000	2000	2000	2000	2000	
Date	2021/05/25	2021/05/25	2021/05/25	2021/05/25	2021/05/25	
Time	15:50:10.2546155370585883856	15:50:10.254615487	15:50:10.254615487	15:50:10.254615487	15:50:10.254615487	
Y_Unit_Label	Volts	Volts	Volts	Volts	Volts	
X_Dimension	Time	Time	Time	Time	Time	
X0	0.0000000000000000E+0	0.0000000000000000E+0	0.0000000000000000E+0	0.0000000000000000E+0	0.0000000000000000E+0	
Delta_X	0.001000	0.001000	0.001000	0.001000	0.001000	
***End_of_Header***						
X_Value	cisnienieKomoraGorna	sila1	sila2	sila3	sila1 1	Comment
	6.500816	-3.201998	39.745285	6.218074	42.761360	Masa: 0.00 [kg]\09Pozycja Y 5.00 [m]\09Pozycja Z 2.71 [m]\0A
	5.835856	-1.131274	41.483323	3.987349	44.339398
	6.229906	-2.724139	41.641327	3.509336	42.426524
	5.761972	-5.113436	39.745285	1.915961	36.547810
	6.279163	-1.290560	41.325320	2.393974	42.428733
	5.417178	-2.883425	40.851309	3.509336	41.477220
	6.328419	-2.405565	41.167316	3.987349	42.749099
	5.712716	-1.449847	44.801397	3.031324	46.382874
	6.205278	-2.405565	40.535302	3.509336	41.639073
	5.761972	-2.564852	42.273341	3.828011	43.536500
	6.254535	-3.520571	42.115337	3.987349	42.582115
	5.589575	-2.724139	41.957334	3.509336	42.742531
	5.835856	-1.927706	39.745285	3.031324	40.848902
	4.973872	-3.042711	42.905355	3.349999	43.212642
	5.909741	-3.839144	41.325320	2.712649	40.198824
	5.146269	-5.750582	40.061292	2.393974	36.704683
	5.811228	-3.679858	40.851309	1.756624	38.928075
	4.924616	-2.564852	40.535302	2.712649	40.683099
	5.934369	-4.157717	39.903288	2.075299	37.820870
	5.318666	-5.272723	42.747351	2.075299	39.549927
	5.909741	-4.476290	40.693306	3.509336	39.726352
	5.441806	-3.042711	41.641327	3.509336	42.107951
	5.786600	-2.405565	41.325320	3.190661	42.110415
	5.367922	-4.317003	40.061292	2.393974	38.138262
	5.811228	-3.679858	42.273341	4.784036	43.377519
	5.072384	-5.113436	42.589348	3.828011	41.303923
	5.343294	-2.405565	41.641327	6.377411	45.613172
	4.924616	-2.724139	41.325320	3.828011	42.429192
	5.688088	-2.246279	41.957334	6.218074	45.929128
	5.195525	-3.042711	41.483323	3.987349	42.427960
	5.638831	-5.113436	38.955267	4.943374	38.785205
	5.343294	-3.042711	44.169383	3.349999	44.476669
	5.318666	-3.679858	40.061292	4.784036	41.165470
	5.121641	-2.883425	41.483323	3.987349	42.587247
	5.195525	-5.113436	40.693306	3.031324	38.611193
	4.875359	-4.157717	40.693306	4.306024	40.841612
	5.244781	-4.476290	41.009313	1.278611	37.811634
	5.097012	-7.821306	36.111204	-2.386151	25.903746
	5.023128	-3.998431	40.535302	1.278611	37.815483
	5.121641	-4.954149	40.377299	1.597286	37.020435
	5.097012	-5.272723	40.535302	1.915961	37.178541
	5.023128	-1.927706	40.851309	3.668674	42.592277
	4.973872	-2.724139	43.221362	2.871986	43.369209
	4.850731	-3.679858	39.429278	1.915961	37.665381
	5.343294	-2.405565	42.431344	4.784036	44.809815
	4.752219	-4.157717	41.167316	3.987349	40.996948
	5.047756	-2.883425	39.903288	3.509336	40.529199
	5.121641	-1.290560	42.431344	4.624699	45.765483
	5.072384	-2.724139	41.483323	3.987349	42.746533
	5.269409	-4.954149	39.429278	3.828011	38.303139
	4.973872	-3.201998	41.167316	3.190661	41.155979
	5.318666	-6.706301	37.533236	1.597286	32.424221
	5.269409	-3.201998	39.271274	2.553311	38.622587
	5.220153	-3.839144	43.063358	1.915961	41.140175
	5.343294	-3.042711	40.693306	2.871986	40.522580
	5.343294	-3.520571	40.693306	2.393974	39.566708
	5.195525	-4.157717	40.219295	1.597286	37.658864
	5.441806	-3.839144	37.533236	-0.314764	33.379328
	5.712716	-0.016268	44.801397	5.262049	50.047177
	6.451560	-3.361285	41.799330	3.031324	41.469369
	8.914373	-2.246279	41.167316	2.712649	41.633686
	11.771236	-2.724139	41.325320	3.031324	41.632505
	15.120662	0.620878	42.589348	3.349999	46.560224
	18.396204	-2.086993	39.903288	3.031324	40.847619
	20.982158	1.258024	46.223428	5.740061	53.221513
	21.819515	-0.016268	41.799330	4.146686	45.929748
	23.740510	0.939451	43.695372	7.174099	51.808922
	26.351092	3.328748	44.643393	6.536749	54.508890
	28.050433	4.284467	44.169383	7.970786	56.424636
	31.350604	8.585203	48.435477	7.492774	64.513454
	34.700031	9.063062	48.751484	8.767474	66.582020
	40.463015	10.815214	50.489523	9.086149	70.390885
	45.339387	14.160231	53.175582	9.882836	77.218649
	50.585182	17.345961	55.229628	12.910248	85.485837
	55.264529	23.717420	57.441677	14.662961	95.822058
	60.781234	26.903150	65.183848	17.849711	109.936709
	64.179919	32.318891	67.869908	21.514474	121.703272
	67.652488	38.690351	72.926020	24.063874	135.680245
	70.460097	46.813963	80.194181	30.437373	157.445517
	76.223084	58.601164	88.094356	36.173524	182.869043
	82.330867	67.521208	99.628611	43.662386	210.812205
	90.433531	78.352690	109.740835	51.310586	239.404111
	98.339171	96.033491	123.961150	64.854274	284.848915
	107.156055	108.935698	136.285423	74.892536	320.113657
	115.061697	126.138640	151.927770	87.639536	365.705946
	123.755443	144.615874	167.886123	103.413949	415.915946
	130.872987	165.323119	191.428645	117.754324	474.506087
	137.694994	183.003920	205.964967	134.325423	523.294310
	143.384106	203.233306	226.979432	148.984474	579.197212
	147.915693	223.144119	246.413863	164.599549	634.157530
	148.211231	244.329223	264.584265	180.214624	689.128112
	152.545794	264.717895	287.178766	193.758311	745.654972
	157.717715	282.557983	304.559151	208.417361	795.534495
	159.663343	298.008774	321.781532	222.598399	842.388704
	168.775779	313.459564	338.055893	233.592686	885.108142
	174.046216	331.936798	355.910288	248.251736	936.098822
	181.213026	348.184021	370.288607	258.927348	977.399976
	186.434208	362.360519	390.355051	272.630374	1025.345944
	194.118214	375.581299	400.625279	282.031286	1058.237864
	195.201856	390.076370	416.267625	294.140936	1100.484932
	200.127503	407.757172	433.332003	307.047274	1148.136449
	200.817093	425.119401	447.710322	320.431624	1193.261346
	202.294787	440.570191	465.248710	335.728024	1241.546925
	203.526199	458.410279	482.945102	349.271711	1290.627092
	203.476942	475.453935	498.903456	365.046124	1339.403514
	208.402590	494.090455	516.599848	379.545836	1390.236139
	210.323593	515.912705	536.350285	398.188324	1450.451314
	211.530377	528.974198	548.990565	408.226586	1486.191350
	212.318480	548.247865	571.901073	424.479011	1544.627949
	211.801287	564.495088	585.015363	437.226011	1586.736462
	209.757143	578.034440	599.393682	447.582949	1625.011071
	205.200919	590.458787	610.927937	456.983861	1658.370586
	200.053618	602.723848	622.304189	466.862786	1691.890823
	198.058731	612.281038	634.470459	473.076949	1719.828445
	193.280855	620.245363	642.054627	478.813099	1741.113088
	192.443495	624.386812	646.952735	481.043824	1752.383371
	191.113571	632.828996	655.168917	488.373349	1776.371262
	186.779004	631.076845	653.746886	484.867924	1769.691654
	184.143784	633.625429	655.010914	485.983286	1774.619629
	180.695833	634.581148	659.593015	487.417324	1781.591487
	174.538780	631.713991	654.062893	485.027261	1770.804145
	167.864535	628.209688	650.902823	482.318524	1761.431034
	161.658227	628.050401	651.376833	483.274549	1762.701783
	154.195883	624.705385	647.584749	482.637199	1754.927333
	148.580654	619.130357	642.054627	477.697736	1738.882720
	141.807902	614.351762	639.842578	478.016411	1732.210751
	135.601599	607.502443	631.468392	471.164899	1710.135734
	130.183398	602.564561	626.096273	468.296824	1696.957658
	129.370668	596.989534	618.828112	462.720011	1678.537657
	123.041226	585.202333	608.715888	454.434461	1648.352682
	115.751286	575.645143	604.449794	449.335661	1629.430598
	107.821015	564.654375	588.807447	440.412761	1593.874583
	99.767605	551.274308	577.589199	429.896486	1558.759993
	93.216513	538.212816	562.894873	418.264849	1519.372537
	85.089221	522.124879	549.306572	407.111223	1478.542674
	78.735156	505.718369	534.296240	395.479586	1435.494195
	72.602746	490.108293	520.391932	381.935899	1392.436123
	66.248683	471.790345	501.589515	367.914198	1341.294059
	60.387184	456.498841	485.315155	353.892499	1295.706494
	54.968992	435.950883	467.618763	342.260861	1245.830506
	50.511297	416.517929	449.132353	326.008436	1191.658719
	48.467161	398.040695	431.119954	310.712036	1139.872685
	42.507151	380.997040	415.635611	298.443049	1095.075700
	36.891935	363.475525	395.569167	281.553274	1040.597965
	31.055066	342.449707	378.188782	269.124949	989.763437
	26.449605	323.335327	359.702372	253.031861	936.069560
	21.499349	305.654525	342.005980	239.328836	886.989342
	17.829757	287.336578	326.205630	225.307136	838.849344
	13.470577	266.470047	306.139185	209.373386	781.982618
	10.367433	254.364272	293.024895	199.016449	746.405616
	6.993379	237.798476	275.170500	186.747461	699.716437
	4.604450	219.321243	257.632111	172.566424	649.519777
	3.988747	203.870452	247.519887	162.846836	614.237175
	0.762461	188.578948	228.717471	150.099836	567.396255
	-1.552583	174.083877	216.077191	140.539586	530.700653
	-1.084648	161.500243	201.856876	129.067286	492.424405
	-2.340683	147.960891	189.216596	119.825711	457.003197
	-2.119030	135.217971	178.472358	112.018174	425.708502
	-1.872749	122.793624	168.518137	102.617261	393.929022
	0.294527	113.873580	158.563917	97.040448	369.477945
	3.003621	104.157103	148.293689	87.161524	339.612316
	3.890234	94.759200	140.709521	83.178086	318.646807
	4.727590	85.042723	131.071308	75.051873	291.165904
	4.210400	77.556258	123.961150	71.068436	272.585844
	2.560315	69.910505	116.218979	63.420236	249.549720
	1.156511	66.246916	111.952884	59.118124	237.317924
	0.442296	56.530439	104.684723	52.585286	213.800449
	0.048246	53.026136	100.102621	50.195224	203.323982
	0.023617	46.654677	96.152534	45.415099	188.222309
	0.023617	41.716795	91.412429	43.503049	176.632272
	1.353536	37.256773	85.882306	38.404249	161.543328
	2.387918	34.389616	82.564233	36.651536	153.605385
	3.594696	34.389616	79.404163	34.580149	148.373928
	4.235028	27.062437	73.874041	30.915386	131.851864
	4.136515	22.920988	74.664058	29.481348	127.066395
	2.855852	21.487409	67.869908	26.294599	115.651916
	2.314034	20.850264	66.605880	26.135261	113.591404
	1.279652	18.620252	61.391764	19.921099	99.933115
	0.762461	14.956663	59.495722	20.558449	95.010834
	-0.148780	13.523085	60.443743	18.805736	92.772564
	0.811718	12.089506	57.757684	18.487061	88.334251
	0.269899	9.063062	51.911554	12.432236	73.406852
	1.673702	10.018782	49.857509	11.157536	71.033826
	1.624446	7.470198	49.699505	10.520186	67.689889
	2.855852	3.806608	45.907421	6.696086	56.410115
	2.067752	6.355192	50.805530	8.130124	65.290845
	2.683456	3.806608	44.169383	5.899399	53.875389
	1.698330	2.850889	44.485390	5.899399	53.235677
	1.673702	2.532316	42.115337	4.465361	49.113014
	1.008743	4.921613	41.325320	5.740061	51.986994
	1.304280	0.620878	40.851309	2.075299	43.547486
	1.033371	-0.016268	38.797264	2.871986	41.652982
	1.722958	0.620878	40.219295	2.553311	43.393484
	1.772215	-0.812701	37.691239	1.915961	38.794500
	2.412546	3.169462	39.587281	2.393974	45.150717
	2.732712	-0.653414	34.531169	1.756624	35.634379
	3.299159	-1.290560	39.113271	-1.430127	36.392584
	3.003621	-0.175555	37.059225	1.278611	38.162282
	3.052878	-2.405565	34.057159	-3.342177	28.309417
	2.954365	-1.131274	33.899155	-3.023502	29.744380
	2.535687	-2.086993	32.635127	-4.138864	26.409271
	2.658827	-1.768420	35.637194	-4.138864	29.729910
	2.708084	-2.883425	34.373166	-3.979527	27.510214
	3.397671	-0.653414	34.847176	-3.023502	31.170261
	3.545440	1.576597	35.321187	-2.386151	34.511632
	3.594696	-0.016268	35.637194	-1.748802	33.872124
	3.816350	0.461591	34.847176	-1.748802	33.559966
	4.308912	2.373029	38.481257	0.800599	41.654885
	3.865606	-0.016268	36.585215	1.119274	37.688220
	3.643953	-0.175555	37.059225	-0.633439	36.250232
	3.077506	0.620878	36.743218	0.959936	38.324032
	3.200646	3.328748	36.427211	0.003911	39.759871
	3.151390	-0.016268	38.165250	0.641261	38.790243
	3.052878	1.576597	37.533236	0.800599	39.910431
	2.683456	-0.334841	38.007246	1.597286	39.269691
	3.077506	1.417310	38.481257	0.641261	40.539828
	2.757340	2.373029	38.165250	0.163249	40.701528
	3.397671	0.939451	37.849243	0.800599	39.589292
	2.855852	0.620878	41.325320	0.959936	42.906134
	2.584943	1.258024	40.377299	2.075299	43.710621
	2.190893	0.461591	39.271274	-0.155427	39.577439
	2.560315	5.399473	41.957334	3.190661	50.547468
	1.846099	-0.175555	37.533236	0.959936	38.317617
	2.412546	-0.494128	41.799330	1.278611	42.583814
	1.673702	1.098737	40.377299	2.712649	44.188685
	2.190893	-0.653414	39.429278	1.597286	40.373150
	1.796843	-0.016268	40.377299	1.756624	42.117654
	2.609571	0.302305	39.903288	4.784036	44.989629
	1.846099	0.461591	40.693306	2.393974	43.548871
	2.387918	-0.175555	39.587281	4.943374	44.355100
	1.870727	-1.131274	40.535302	2.234636	41.638665
	2.437174	-2.405565	41.325320	2.871986	41.791740
	2.190893	-0.971987	39.745285	1.915961	40.689259
	1.796843	-0.494128	39.587281	1.597286	40.690440
	1.993868	-2.086993	41.167316	1.597286	40.677610
	2.067752	-1.927706	40.693306	1.278611	40.044211
	1.796843	-3.839144	40.377299	0.800599	37.338753
	2.190893	-1.927706	40.693306	1.119274	39.884873
	2.166265	-0.016268	40.219295	1.915961	42.118988
	1.993868	-2.405565	40.061292	1.597286	39.253012
	2.584943	-7.184160	37.849243	-3.023502	27.641581
	1.895355	-1.768420	42.589348	4.306024	45.126952
	2.461802	-2.883425	39.903288	0.322586	37.342449
	1.895355	0.780165	41.641327	3.349999	45.771490
	2.708084	-2.564852	38.797264	2.075299	38.307710
	2.018496	-4.476290	40.377299	0.322586	36.223595
	2.215521	-2.883425	40.693306	4.306024	42.115904
	1.796843	-2.564852	40.851309	2.075299	40.361756
	2.363290	-3.201998	40.219295	3.031324	40.048621
	1.649074	-2.564852	39.271274	2.075299	38.781721
	2.511059	-3.201998	41.483323	-0.952114	37.329211
	1.673702	-2.564852	39.903288	1.119274	38.457710
	2.018496	-5.750582	38.955267	-0.952114	32.252571
	1.476677	-3.201998	41.009313	1.597286	39.404601
	2.166265	-1.131274	41.325320	2.871986	43.066032
	1.895355	-2.086993	39.113271	0.641261	37.667539
	2.092380	-3.520571	41.641327	1.756624	39.877379
	1.575190	-3.679858	40.535302	1.437949	38.293393
	2.166265	-5.591295	39.113271	0.003911	33.525886
	1.747587	-3.361285	40.851309	0.959936	38.449961
	2.560315	-2.405565	38.481257	0.800599	36.876290
	1.649074	-2.405565	42.115337	2.553311	42.263083
	2.461802	-4.317003	39.587281	1.597286	36.867564
	1.870727	-5.272723	39.113271	0.800599	34.641147
	2.141637	-3.679858	40.535302	1.437949	38.293393
	1.452049	-0.334841	40.219295	4.146686	44.031140
	2.166265	-3.042711	41.957334	1.597286	40.511908
	1.649074	-3.201998	41.483323	2.553311	40.834636
	2.215521	-3.520571	40.377299	1.119274	37.976001
	1.722958	-4.476290	39.903288	-0.792777	34.634222
	2.215521	-4.954149	40.693306	0.959936	36.699092
	1.747587	-2.246279	39.113271	1.119274	37.986265
	2.240149	-2.724139	42.747351	-0.155427	39.867786
	1.698330	-2.724139	39.745285	1.437949	38.459094
	2.511059	-4.954149	39.587281	-1.270789	33.362343
	1.673702	-7.343447	38.007246	-1.111452	29.552348
	2.412546	-3.520571	38.323253	-0.155427	34.647256
	1.969240	-3.839144	39.271274	-1.430127	34.002004
	2.486431	-3.361285	40.219295	0.322586	37.180597
	2.018496	-3.520571	40.061292	0.641261	37.181982
	2.461802	-3.201998	41.641327	3.668674	42.108002
	1.919983	-2.564852	39.903288	0.322586	37.661022
	2.560315	-1.609133	38.955267	1.278611	38.624745
	2.166265	-1.927706	42.905355	1.119274	42.096922
	2.584943	-3.201998	39.113271	1.756624	37.667896
	2.117009	-0.971987	42.273341	2.553311	43.854665
	2.437174	-0.016268	42.431344	1.915961	44.331037
	2.067752	-0.334841	38.955267	0.322586	38.943012
	2.387918	-1.609133	42.273341	-1.270789	39.393419
	2.412546	-1.449847	40.535302	-0.314764	38.770692
	2.289405	-2.086993	40.377299	0.003911	38.294217
	2.412546	-3.042711	40.851309	-0.474102	37.334496
	2.461802	-2.724139	40.219295	0.322586	37.817743
	2.264777	-1.290560	40.377299	0.322586	39.409325
	2.511059	-0.812701	42.905355	0.959936	43.052590
	2.535687	-1.131274	41.167316	1.915961	41.952004
	2.387918	-3.679858	40.693306	-0.155427	36.858022
	2.461802	-3.520571	40.061292	0.800599	37.341319
	2.658827	-0.653414	40.693306	1.597286	41.637178
	2.806596	1.098737	43.695372	3.828011	48.622121
	2.338662	-2.883425	41.483323	-0.314764	38.285134
	2.215521	-3.839144	40.535302	1.278611	37.974769
	2.461802	-2.564852	41.641327	0.641261	39.717736
	2.609571	-2.405565	40.693306	0.641261	38.929001
	2.412546	1.895170	41.325320	1.278611	44.499101
	2.412546	-3.201998	42.589348	-1.748802	37.638548
	2.289405	-3.520571	40.851309	-0.314764	37.015974
	2.535687	-3.201998	41.325320	-0.792777	37.330545
	2.363290	-4.317003	40.219295	-1.589464	34.312828
	2.929737	-5.113436	38.955267	-0.952114	32.889717
	2.338662	-2.246279	42.431344	1.119274	41.304339
	2.486431	-1.131274	41.799330	0.800599	41.468655
	2.166265	-4.794863	40.851309	-0.155427	35.901020
	2.264777	-4.635576	40.535302	-0.155427	35.744299
	2.166265	-2.086993	42.589348	4.784036	45.286391
	2.387918	-4.794863	38.323253	-1.111452	32.416939
	2.437174	1.735883	44.327386	6.058736	52.122006
	2.683456	-3.679858	40.535302	0.163249	37.018693
	2.412546	-3.520571	41.483323	2.075299	40.038051
	2.560315	-5.909868	39.745285	-0.792777	33.042639
	2.289405	-2.724139	39.745285	3.031324	40.052470
	2.535687	-2.724139	42.273341	0.003911	39.553113
	2.117009	-2.883425	41.483323	0.959936	39.559834
	2.363290	-4.317003	40.851309	0.163249	36.697554
	1.993868	-5.272723	40.851309	-0.155427	35.423160
	2.437174	-2.883425	41.167316	0.959936	39.243827
	2.166265	-1.609133	41.009313	0.641261	40.041441
	2.560315	-3.201998	39.903288	-0.633439	36.067851
	1.796843	-3.998431	41.325320	1.119274	38.446163
	2.511059	-5.591295	39.113271	-0.474102	33.047874
	1.870727	-3.679858	40.851309	1.278611	38.450063
	2.412546	-4.635576	41.167316	1.756624	38.288363
	1.599818	-3.361285	42.115337	0.959936	39.713989
	2.092380	-2.086993	41.483323	3.509336	42.905667
	1.821471	-2.724139	41.957334	1.756624	40.989819
	2.190893	-3.679858	41.641327	3.828011	41.789480
	1.673702	-5.591295	38.797264	-0.474102	32.731867
	2.117009	-2.564852	41.957334	1.915961	41.308443
	1.402793	-0.016268	42.115337	3.349999	45.449068
	2.166265	-2.246279	42.115337	1.597286	41.466344
	1.698330	-3.998431	41.167316	1.437949	38.606834
	2.215521	-0.812701	43.221362	2.075299	44.483960
	1.846099	-2.883425	39.271274	1.119274	37.507123
	2.141637	-1.449847	43.063358	1.915961	43.529473
	2.092380	-2.246279	41.325320	1.437949	40.516989
	2.166265	-4.317003	41.325320	1.278611	38.286927
	2.264777	-3.679858	41.641327	0.641261	38.602730
	2.117009	-3.839144	39.587281	1.119274	36.867411
	2.437174	-1.768420	42.905355	3.190661	44.327596
	2.314034	-3.201998	40.693306	1.915961	39.407269
	2.560315	-4.157717	40.535302	2.553311	38.930896
	2.289405	-3.679858	41.009313	0.959936	38.289391
	2.831224	-4.476290	39.113271	1.756624	36.393604
	2.264777	-5.113436	42.747351	1.437949	39.071864
	2.708084	-3.998431	40.693306	0.003911	36.698786
	2.092380	-0.653414	42.273341	2.393974	44.013900
	2.560315	-3.998431	40.535302	-1.111452	35.425420
	1.969240	-4.317003	41.009313	0.800599	37.492908
	2.658827	-4.794863	40.535302	0.800599	36.541038
	2.363290	-5.113436	41.641327	-2.545489	33.982402
	2.461802	-1.768420	40.535302	1.119274	39.886156
	2.067752	-2.246279	42.273341	1.119274	41.146335
	2.264777	-2.883425	43.063358	2.712649	42.892582
	2.067752	-4.794863	41.641327	1.278611	38.125075
	2.708084	-2.564852	42.431344	2.234636	42.101128
	1.919983	-1.609133	42.273341	0.959936	41.624144
	2.609571	-5.432009	39.587281	-0.474102	33.681171
	1.772215	-3.201998	41.957334	4.943374	43.698709
	2.363290	-3.361285	41.641327	1.756624	40.036666
	1.870727	-3.839144	39.745285	4.146686	40.052827
	2.363290	-1.768420	45.117404	1.756624	45.105608
	2.043124	-3.201998	41.325320	3.031324	41.154645
	2.338662	-1.927706	42.589348	2.712649	43.374290
	2.166265	-3.042711	41.325320	1.119274	39.401882
	2.289405	-4.157717	39.587281	1.119274	36.548838
	2.338662	-3.679858	42.747351	1.597286	40.664780
	2.387918	-2.883425	41.641327	1.119274	39.877175
	2.387918	-3.042711	40.219295	0.481924	37.658507
	2.190893	-3.679858	41.641327	1.119274	39.080743
	2.560315	-4.635576	41.009313	2.075299	38.449035
	2.289405	-3.201998	41.009313	2.234636	40.041951
	2.461802	-1.290560	45.749418	4.465361	48.924219
	2.117009	-0.971987	41.167316	3.190661	43.385990
	2.437174	-2.883425	42.115337	2.553311	41.785223
	2.215521	-5.272723	41.641327	3.190661	39.559265
	2.757340	-3.201998	39.587281	2.234636	38.619919
	2.067752	-4.635576	42.115337	2.712649	40.192409
	2.535687	0.302305	42.115337	3.190661	45.608303
	2.240149	-3.361285	41.641327	3.987349	42.267391
	2.264777	-3.839144	42.747351	3.349999	42.258206
	1.698330	-2.883425	42.589348	4.306024	44.011946
	2.461802	-3.998431	40.535302	2.075299	38.612170
	1.747587	-1.768420	44.011379	0.959936	43.202896
	2.412546	-2.724139	41.957334	2.553311	41.786506
	1.575190	-2.564852	42.431344	3.190661	43.057153
	2.560315	-3.520571	41.799330	1.597286	39.876045
	1.846099	-3.361285	41.957334	3.828011	42.424060
	2.338662	-5.591295	42.589348	2.871986	39.870038
	1.722958	-2.883425	42.115337	3.349999	42.581911
	2.511059	0.461591	44.485390	7.174099	52.121080
	1.599818	-2.564852	42.589348	3.668674	43.693169
	2.067752	-3.998431	41.641327	5.262049	42.904945
	2.018496	-2.883425	44.169383	6.536749	47.822706
	2.190893	-0.175555	43.853376	8.130124	51.807945
	1.895355	-2.086993	41.957334	3.031324	42.901665
	2.190893	-2.246279	42.747351	4.306024	44.807096
	1.747587	-6.547015	39.271274	0.481924	33.206183
	2.141637	-1.449847	42.905355	4.624699	46.080207
	2.363290	-2.246279	44.169383	3.828011	45.751115
	1.993868	-1.609133	41.799330	1.756624	41.946821
	2.166265	-4.157717	41.009313	2.075299	38.926894
	2.240149	-3.839144	42.115337	2.234636	40.510829
	2.166265	-4.794863	40.377299	1.756624	37.339059
	2.363290	-3.201998	41.641327	3.349999	41.789327
	2.584943	-3.520571	40.061292	0.800599	37.341319
	2.240149	-3.361285	41.641327	3.190661	41.470703
	2.584943	-4.476290	41.799330	2.712649	40.035689
	2.190893	-3.679858	41.325320	2.712649	40.358111
	2.658827	-5.432009	40.377299	3.668674	38.613963
	2.215521	-1.768420	44.959400	5.421386	48.612367
	2.486431	-4.794863	40.061292	3.987349	39.253777
	1.944612	-0.971987	41.483323	2.553311	43.064647
	2.535687	-2.883425	42.431344	4.943374	44.491293
	1.698330	-4.954149	40.535302	2.871986	38.453139
	2.289405	-1.927706	46.539435	2.712649	47.324378
	1.476677	-3.201998	41.799330	3.509336	42.106668
	2.314034	-2.724139	43.063358	4.146686	44.485906
	1.969240	-1.290560	43.537369	4.306024	46.552832
	2.215521	-4.476290	39.745285	2.075299	37.344293
	1.525933	-4.954149	41.799330	0.959936	37.805117
	2.043124	-4.635576	42.431344	3.031324	40.827091
	1.796843	-2.086993	42.115337	2.393974	42.422318
	2.043124	-1.768420	44.011379	5.262049	47.505008
	1.895355	-4.317003	41.641327	2.712649	40.036972
	2.117009	-3.998431	40.061292	2.712649	38.775510
	2.264777	-3.679858	44.959400	5.740061	47.019604
	1.919983	-5.113436	41.641327	3.828011	40.355902
	2.264777	-3.839144	41.957334	5.421386	43.539576
	1.969240	-2.883425	41.641327	3.031324	41.789225
	2.338662	-5.909868	39.113271	3.031324	36.234726
	2.141637	-2.724139	43.379365	4.943374	45.598600
	2.190893	-6.547015	42.431344	4.624699	40.509028
	2.092380	-4.635576	40.693306	2.234636	38.292365
	2.486431	-1.609133	42.431344	2.234636	43.056847
	1.476677	-3.520571	41.799330	2.712649	40.991408
	2.338662	-5.432009	39.271274	1.756624	35.595889
	1.698330	-4.954149	42.905355	1.278611	39.229816
	2.387918	-6.547015	39.113271	0.800599	33.366855
	1.673702	-2.086993	42.431344	4.146686	44.491038
	1.993868	-3.679858	41.641327	3.190661	41.152130
	1.452049	-2.564852	40.535302	6.218074	44.188524
	2.117009	-2.883425	43.853376	4.465361	45.435312
	1.501305	-3.042711	43.063358	6.696086	46.716733
	1.969240	-3.361285	42.747351	4.465361	43.851428
	1.772215	-3.042711	42.747351	5.262049	44.966688
	1.969240	-2.246279	41.325320	3.668674	42.747714
	1.673702	-1.927706	42.747351	6.536749	47.356394
	1.969240	-5.909868	41.957334	1.915961	37.963426
	2.190893	-5.113436	40.377299	1.597286	36.861149
	1.427421	-3.520571	42.115337	3.509336	42.104102
	2.240149	-2.564852	41.009313	1.756624	40.201084
	2.018496	-5.591295	38.323253	0.959936	33.691894
	2.338662	-4.794863	43.221362	2.234636	40.661135
	2.215521	-4.476290	41.641327	2.234636	39.399673
	2.363290	-2.405565	43.063358	5.262049	45.919841
	2.117009	-0.971987	41.799330	2.393974	43.221317
	2.264777	-4.157717	40.693306	3.190661	39.726250
	2.067752	-4.317003	41.009313	3.668674	40.360983
	2.289405	-4.157717	43.695372	3.190661	42.728316
	1.599818	-3.520571	42.747351	6.218074	45.444854
	2.437174	-2.564852	41.799330	3.509336	42.743814
	1.821471	-2.246279	42.431344	6.218074	46.403139
	2.117009	-4.635576	40.219295	3.987349	39.571067
	1.255024	-3.998431	43.221362	4.784036	44.006967
	2.067752	-4.476290	41.799330	3.828011	41.151051
	1.525933	-4.635576	42.431344	2.871986	40.667754
	1.870727	-3.998431	42.431344	3.031324	41.464237
	1.402793	-2.724139	40.535302	1.915961	39.727125
	1.969240	-2.724139	44.327386	3.031324	44.634571
	1.846099	-5.272723	40.377299	1.915961	37.020537
	2.117009	-3.042711	43.063358	4.146686	44.167333
	1.821471	-4.476290	42.115337	3.190661	40.829708
	2.117009	-2.405565	41.009313	2.712649	41.316396
	1.944612	-3.201998	42.589348	3.668674	43.056023
	1.993868	-3.361285	43.853376	5.102711	45.594802
	1.895355	-4.157717	41.799330	3.828011	41.469624
	1.895355	-3.520571	42.273341	4.943374	43.696143
	2.412546	-4.157717	40.535302	1.597286	37.974871
	1.944612	-3.520571	41.641327	5.899399	44.020154
	2.190893	-5.432009	42.589348	2.234636	39.391975
	1.550562	-3.042711	42.273341	7.014761	46.245390
	1.993868	-5.432009	41.325320	2.553311	38.446622
	1.772215	-2.405565	43.063358	4.465361	45.123154
	2.166265	-2.883425	42.431344	4.146686	43.694605
	1.550562	-4.157717	41.325320	1.915961	39.083564
	2.117009	-2.086993	44.801397	4.465361	47.179765
	1.698330	-4.476290	41.957334	2.234636	39.715680
	2.043124	-4.317003	42.589348	1.915961	40.188305
	2.043124	-1.609133	44.327386	5.580724	48.298977
	2.043124	-1.449847	42.905355	3.509336	44.964844
	2.387918	-3.998431	42.905355	3.668674	42.575598
	1.969240	-5.113436	40.851309	3.031324	38.769197
	2.264777	-3.998431	42.747351	3.668674	42.417594
	1.895355	-2.564852	43.695372	6.058736	47.189256
	2.387918	-1.449847	40.377299	2.712649	41.640101
	1.525933	-3.201998	43.221362	6.058736	46.078100
	1.993868	-3.839144	43.695372	4.784036	44.640264
	1.476677	-3.361285	42.273341	4.943374	43.855430
	1.895355	-3.520571	42.905355	3.987349	43.372132
	1.304280	-4.157717	42.589348	3.509336	41.940967
	1.969240	-3.042711	41.325320	4.624699	42.907307
	1.501305	-1.449847	45.275407	3.987349	47.812909
	1.969240	-2.724139	43.063358	3.190661	43.529881
	1.796843	-3.520571	43.063358	4.624699	44.167486
	1.870727	-4.476290	42.905355	3.349999	41.779063
	1.821471	-2.724139	41.167316	4.306024	42.749201
	2.264777	-1.609133	44.327386	3.828011	46.546264
	2.338662	-3.201998	42.905355	4.306024	44.009380
	2.043124	-3.520571	43.379365	6.058736	45.917530
	2.018496	-3.679858	43.695372	4.943374	44.958888
	1.772215	-3.201998	42.747351	5.262049	44.807402
	2.166265	-3.201998	40.693306	2.871986	40.363294
	2.215521	-5.113436	44.485390	4.146686	43.518640
	2.166265	-3.201998	43.379365	5.262049	45.439416
	2.092380	-3.520571	43.221362	6.536749	46.237539
	2.215521	-3.520571	43.379365	4.146686	44.005480
	1.575190	0.143018	43.379365	6.058736	49.581120
	2.314034	-3.042711	44.643393	4.306024	45.906705
	1.772215	-5.113436	42.431344	2.393974	39.711882
	2.190893	-3.361285	43.379365	3.828011	43.846092
	1.525933	-3.042711	43.695372	2.871986	43.524647
	2.141637	-2.405565	42.589348	2.712649	42.896431
	1.353536	-2.724139	42.589348	4.943374	44.808583
	2.067752	-2.883425	45.749418	3.031324	45.897316
	1.550562	-4.157717	42.431344	3.349999	41.623626
	2.092380	-1.131274	46.539435	7.174099	52.582260
	1.796843	-4.954149	42.431344	3.349999	40.827193
	1.993868	-0.334841	45.433411	10.201511	55.300081
	1.673702	-1.290560	43.853376	3.509336	46.072152
	1.993868	-2.564852	44.011379	7.492774	48.939301
	2.018496	-3.679858	44.485390	4.784036	45.589568
	1.895355	-2.883425	44.485390	4.784036	46.386001
	1.870727	-2.883425	43.221362	4.784036	45.121973
	2.117009	-2.724139	47.171449	3.987349	48.434659
	2.314034	-2.564852	43.063358	3.987349	44.485855
	1.846099	-2.405565	45.749418	5.421386	48.765238
	2.387918	-3.042711	44.485390	3.349999	44.792676
	1.821471	-3.998431	43.379365	3.987349	43.368283
	2.461802	-3.520571	42.747351	3.509336	42.736116
	1.599818	-2.564852	45.433411	4.943374	47.811932
	2.264777	-2.405565	44.327386	4.306024	46.227844
	1.452049	-3.361285	44.011379	4.465361	45.115456
	2.264777	-3.520571	44.643393	4.465361	45.588183
	1.673702	-3.520571	44.327386	5.740061	46.546876
	2.560315	-1.449847	45.591414	5.899399	50.040966
	2.905109	0.461591	46.539435	7.333436	54.334463
	3.693209	-3.201998	44.011379	5.580724	46.390105
	4.407425	-0.494128	47.329453	7.174099	54.009424
	5.491063	-1.768420	46.381432	8.767474	53.380486
	6.279163	1.258024	46.539435	6.696086	54.493545
	7.091891	1.735883	48.277474	6.058736	56.072093
	7.879991	1.735883	47.171449	5.899399	54.806731
	7.953876	0.302305	47.171449	3.987349	51.461103
	9.209910	3.488035	49.225495	5.899399	58.612928
	10.441317	4.762327	48.909488	6.696086	60.367901
	11.992889	8.266630	54.755617	7.174099	70.196346
	13.076527	9.381636	53.807596	10.201511	73.390743
	14.800497	11.133787	55.703638	10.679524	77.516949
	15.637853	13.841658	58.705705	11.794886	84.342248
	16.598350	15.912382	59.811729	14.981636	90.705747
	18.470089	19.416685	65.657859	16.096999	101.171542
	21.548606	22.761702	66.605880	19.921099	109.288680
	23.247947	29.770307	70.871974	20.558449	121.200730
	26.794399	29.451735	74.032044	23.904536	127.388315
	29.232584	32.159605	76.560100	24.223211	132.942916
	32.040192	35.982481	78.456142	25.975924	140.414547
	32.261845	40.283216	86.830328	28.684661	155.798205
	35.734413	45.698957	86.356317	28.365986	160.421260
	38.344995	47.769682	90.938419	32.349424	171.057524
	42.063845	49.043974	94.256492	32.508761	175.809227
	45.585669	56.211866	98.838594	38.244911	193.295371
	49.378403	60.831175	105.474741	41.272324	207.578239
	53.392790	68.317640	108.634811	43.662386	220.614837
	57.062384	70.229078	112.268891	47.486486	229.984456
	61.199913	76.759825	119.853059	52.585286	249.198170
	64.303059	80.582701	122.539119	53.859986	256.981806
	68.317448	86.794875	126.015196	57.684086	270.494156
	70.657122	94.918486	136.601430	61.667524	293.187440
	72.873656	99.537795	137.707455	66.288311	303.533560
	73.341591	106.387114	144.817612	70.431086	321.635812
	76.961929	114.988585	152.875791	77.919949	345.784324
	79.523257	124.227202	159.985948	82.381399	366.594549
	83.586903	132.032241	168.202130	88.595561	388.829932
	86.246744	143.023009	177.524337	94.491049	415.038394
	90.655184	153.695205	186.846543	100.705211	441.246959
	93.561307	164.526686	197.748785	108.672086	470.947557
	97.477185	175.517455	207.703005	115.364261	498.584721
	100.186283	185.393218	216.867208	123.171799	525.432225
	102.796869	201.162581	233.931586	133.528736	568.622904
	104.890263	214.861221	243.569800	142.770311	601.201331
	105.924646	225.851989	254.630045	153.127249	633.609282
	106.146300	236.364898	265.058276	161.412799	662.835972
	107.426964	250.859970	275.170500	173.203774	699.234243
	108.288950	260.576446	289.074808	179.895949	729.547202
	109.988294	273.160079	298.713021	186.906799	758.779899
	109.840525	280.487258	307.561217	195.192349	783.240824
	110.998049	289.248016	316.883424	198.857111	804.988551
	111.958548	296.734481	323.361567	205.549286	825.645335
	112.401855	304.539520	330.471725	208.895374	843.906618
	113.682520	312.822418	341.215963	214.950199	868.988579
	112.919046	317.282440	343.586015	217.021586	877.890041
	112.992931	321.264603	349.432145	222.439061	893.135808
	111.909291	326.043198	354.488257	223.235749	903.767203
	111.465984	329.069641	356.700306	224.829124	910.599070
	110.751767	335.600388	363.494456	228.971899	928.066742
	109.692756	336.237534	365.232495	229.449911	930.919939
	108.338207	338.626831	367.128537	232.477324	938.232691
	107.426964	341.812561	369.972600	233.752024	945.537184
	105.038032	343.723999	371.710638	236.779436	952.214073
	104.841007	346.591156	372.816663	239.647511	959.055330
	102.255049	345.635437	375.660726	239.806849	961.103011
	102.058024	349.776886	376.608747	244.586974	970.972606
	98.437684	350.414032	378.504789	245.861674	974.780494
	96.319662	349.936173	378.820796	246.977036	975.734004
	93.536679	351.529038	378.662792	250.801136	980.992966
	91.714195	351.210465	379.926820	248.570411	979.707696
	89.349892	353.599762	379.136803	251.279148	984.015713
	87.724433	349.776886	377.398764	248.092399	975.268049
	85.138477	346.272583	375.502722	247.136374	968.911679
	82.059957	346.113296	373.764684	245.383661	965.261641
	78.759784	340.219696	366.970533	239.488174	946.678403
	75.361099	342.290421	370.604614	239.806849	952.701883
	73.095309	335.281814	363.494456	235.823411	934.599682
	68.071166	328.273209	358.912355	230.883949	918.069512
	65.362070	324.450333	354.330253	228.812561	907.593147
	61.569335	318.556732	348.010113	224.032436	890.599281
	58.663213	309.636688	341.215963	216.065561	866.918211
	54.501057	302.150222	333.631795	210.966761	846.748778
	52.087499	294.345184	327.311655	206.983324	828.640162
	51.127001	287.495865	320.201497	201.884524	809.581885
	48.639558	282.398696	316.567417	199.813136	798.779249
	44.945337	270.770782	302.663109	189.137524	762.571414
	41.916076	263.125030	299.503039	185.154086	747.782155
	38.443508	253.089980	286.546752	180.533299	720.170030
	35.118709	241.302780	276.592531	170.176361	688.071672
	32.064820	235.249893	269.482374	168.104974	672.837240
	29.306468	224.099838	259.370150	159.500749	642.970736
	26.301836	214.064788	250.837961	152.808574	617.711322
	23.863650	205.304031	243.095789	146.275736	594.675556
	21.080671	195.428268	232.667558	140.220911	568.316737
	18.667114	185.711791	224.135369	133.210061	543.057221
	17.164798	174.880309	214.181149	124.127824	513.189281
	16.155044	168.030990	204.700939	119.507036	492.238964
	13.938512	160.863097	200.276841	114.408236	475.548174
	12.091402	150.031615	187.636561	107.397386	445.065562
	10.318176	139.040847	178.630361	101.023886	418.695094
	8.003132	131.395094	171.046193	95.765749	398.207036
	6.623957	125.342208	163.304022	91.782311	380.428540
	4.924616	115.307158	155.561850	84.771461	355.640469
	3.890234	107.661406	147.345668	79.035311	334.042385
	1.846099	99.856368	139.919504	75.529886	315.305757
	1.599818	92.688475	133.757367	69.315723	295.761566
	0.343783	84.087004	125.225178	64.376261	273.688443
	0.393039	78.671263	120.327070	60.074149	259.072481
	-0.444317	71.025511	112.110888	53.222636	236.359035
	0.220642	65.450484	106.264758	49.557874	221.273115
	0.122130	62.424040	105.316737	48.283174	216.023950
	0.688577	55.574720	99.312604	44.777749	199.665073
	0.811718	50.158980	91.886440	40.953649	182.999068
	2.264777	47.132536	91.886440	38.404249	177.423224
	2.757340	41.238935	84.618279	34.261474	160.118688
	2.560315	37.416059	81.458208	31.552736	150.427004
	2.708084	31.044600	76.718104	28.684661	136.447364
	1.821471	29.133161	73.874041	26.931949	129.939151
	1.378165	25.150999	68.659925	24.223211	118.034135
	1.082627	27.699583	72.926020	24.701224	125.326826
	0.713205	21.328123	66.131869	21.992486	109.452478
	0.516180	16.071669	62.813796	21.036461	99.921925
	0.885602	14.797377	60.443743	17.531036	92.772156
	0.910230	13.682371	57.125670	18.168386	88.976427
	1.895355	14.478804	58.231694	14.662961	87.373458
	1.698330	11.293074	55.861642	15.778324	82.933039
	2.658827	7.948057	53.333586	12.113561	73.395204
	1.550562	8.107344	52.543568	10.520186	71.171098
	2.240149	6.514479	50.805530	10.520186	67.840194
	1.033371	5.240187	49.699505	9.086149	64.025840
	1.378165	6.036619	48.909488	8.767474	63.713580
	0.516180	4.443754	47.171449	7.333436	58.948639
	1.205768	5.558759	46.855442	5.899399	58.313600
	0.836346	1.735883	44.801397	6.377411	52.914691
	1.673702	2.532316	44.801397	6.536749	53.870461
	1.107255	1.895170	45.591414	5.899399	53.385983
	2.240149	1.895170	42.431344	5.421386	49.747900
	1.846099	1.258024	43.537369	4.465361	49.260754
	2.289405	1.576597	43.853376	6.536749	51.966721
	1.870727	-0.016268	40.219295	2.234636	42.437663
	2.166265	-0.812701	43.379365	3.031324	45.597988
	1.698330	1.576597	40.219295	2.234636	44.030528
	2.018496	0.780165	41.641327	3.031324	45.452815
	1.895355	-0.016268	41.957334	1.119274	43.060339
	2.314034	2.213743	42.747351	1.597286	46.558380
	2.092380	1.417310	41.957334	1.756624	45.131268
	2.486431	2.532316	42.747351	-0.633439	44.646228
	2.289405	3.488035	43.695372	1.915961	49.099368
	2.609571	0.939451	41.799330	-0.952114	41.786667
	2.511059	2.532316	42.589348	-0.952114	44.169550
	2.166265	2.532316	42.431344	0.641261	45.604921
	2.117009	1.895170	42.905355	-1.748802	43.051723
	2.018496	4.603041	43.537369	1.119274	49.259683
	1.501305	4.603041	44.327386	-0.155427	48.775000
	1.649074	4.125181	44.327386	0.003911	48.456478
	1.846099	2.532316	43.063358	-0.155427	45.440248
	1.944612	2.373029	42.905355	-1.270789	44.007595
	2.338662	4.443754	46.065425	1.756624	52.265802
	1.821471	7.629484	45.117404	-0.314764	52.432124
	1.969240	3.806608	44.801397	0.003911	48.611916
	1.796843	5.399473	47.171449	1.437949	54.008871
	2.067752	2.691602	42.589348	-2.067477	43.213474
	1.452049	3.328748	47.961467	-1.589464	49.700751
	1.895355	2.213743	42.431344	-3.660852	40.984236
	1.279652	4.125181	45.591414	-0.792777	48.923819
	1.673702	2.850889	43.695372	-1.270789	45.275472
	1.722958	0.780165	41.483323	-2.386151	39.877336
	1.993868	0.302305	44.327386	-1.908139	42.721552
	1.747587	0.143018	43.063358	-0.792777	42.413600
	1.919983	1.098737	43.063358	-0.792777	43.369319
	1.599818	2.532316	43.695372	0.959936	47.187624
	1.993868	0.620878	42.747351	-0.952114	42.416115
	1.698330	-0.175555	41.957334	0.481924	42.263703
	1.772215	0.302305	47.961467	0.322586	48.586358
	1.181140	-0.175555	41.957334	0.641261	42.423040
	1.722958	2.532316	44.169383	0.959936	47.661635
	1.107255	-2.086993	41.483323	0.641261	40.037592
	1.525933	-0.812701	41.799330	-0.155427	40.831203
	0.984115	-2.246279	44.011379	0.003911	41.769011
	1.772215	-0.971987	42.747351	-1.111452	40.663913
	0.885602	0.302305	41.957334	-1.270789	40.988850
	1.846099	-0.653414	42.431344	-0.155427	41.622504
	0.984115	-1.131274	43.063358	-0.155427	41.776658
	1.476677	-2.246279	40.061292	-1.430127	36.384886
	1.328908	-0.971987	45.591414	1.119274	45.738701
	1.722958	-1.609133	40.377299	-1.748802	37.019364
	1.452049	-0.494128	42.589348	1.756624	43.851844
	1.624446	-2.086993	41.167316	0.322586	39.402910
	1.230396	-2.086993	39.587281	0.481924	37.982212
	1.673702	-1.768420	43.853376	3.987349	46.072305
	1.427421	-1.927706	41.167316	1.437949	40.677559
	1.969240	-4.476290	38.955267	0.641261	35.120238
	1.205768	-1.609133	39.903288	-0.952114	37.342041
	1.747587	-2.564852	40.377299	0.959936	38.772383
	1.402793	-4.954149	39.587281	-0.633439	33.999693
	1.476677	-3.679858	38.955267	-1.270789	34.004621
	1.402793	-3.042711	40.377299	-0.314764	37.019823
	2.092380	-0.971987	41.167316	0.003911	40.199240
	1.525933	-2.564852	41.009313	0.322586	38.767047
	1.402793	-3.520571	39.587281	1.119274	37.185984
	1.476677	-3.201998	42.431344	0.641261	39.870607
	1.698330	-3.520571	40.693306	0.800599	37.973333
	1.919983	-1.927706	40.219295	-0.474102	37.817488
	1.747587	-4.954149	40.219295	0.163249	35.428394
	2.584943	-5.113436	39.903288	1.119274	35.909126
	1.624446	-0.494128	43.063358	4.146686	46.715917
	1.919983	-4.476290	41.009313	1.119274	37.652296
	1.796843	-1.290560	42.747351	3.031324	44.488115
	2.018496	-5.591295	38.955267	1.119274	34.483245
	1.747587	-2.724139	41.483323	1.756624	40.515808
	2.043124	-5.113436	38.007246	1.915961	34.809771
	1.624446	-4.317003	42.431344	1.119274	39.233614
	1.722958	-6.387728	40.061292	1.278611	34.952174
	1.082627	-2.246279	42.431344	2.553311	42.738376
	1.895355	-5.750582	38.481257	-1.908139	30.822536
	1.427421	-3.679858	40.219295	0.641261	37.180699
	1.944612	-5.272723	39.745285	-0.792777	33.679786
	1.378165	-5.591295	40.535302	0.003911	34.947918
	1.870727	-3.361285	41.799330	1.597286	40.035332
	1.304280	-2.246279	41.799330	0.959936	40.512987
	2.067752	-2.405565	41.957334	2.393974	41.945742
	1.378165	-3.998431	41.957334	1.915961	39.874864
	1.895355	-3.839144	42.747351	1.119274	40.027481
	1.328908	-3.520571	42.115337	4.784036	43.378802
	1.772215	-2.724139	42.273341	2.075299	41.624501
	1.156511	-3.042711	42.589348	4.624699	44.171335
	1.772215	-2.724139	40.535302	1.756624	39.567787
	1.452049	-3.361285	45.591414	1.437949	43.668078
	1.452049	-4.476290	41.483323	1.756624	38.763657
	1.402793	-3.998431	42.747351	1.597286	40.346207
	1.649074	-3.361285	42.747351	1.597286	40.983353
	1.378165	-1.290560	41.957334	1.278611	41.945385
	1.796843	-2.724139	43.063358	1.915961	42.255181
	1.919983	-5.591295	42.589348	0.641261	37.639313
	1.796843	-4.157717	42.115337	1.278611	39.236231
	1.821471	-2.405565	43.537369	3.349999	44.481802
	1.698330	-1.609133	43.695372	1.756624	43.842863
	1.673702	-2.883425	42.431344	2.871986	42.419905
	1.624446	-6.228441	43.379365	1.278611	38.429535
	1.846099	-1.609133	43.695372	5.102711	47.188950
	1.624446	-5.272723	41.167316	1.437949	37.332542
	1.821471	-0.334841	42.747351	2.871986	45.284496
	1.550562	-2.883425	42.747351	5.580724	45.444650
	2.092380	-4.954149	42.431344	3.349999	40.827193
	1.796843	-6.706301	40.693306	1.597286	35.584291
	1.796843	-2.883425	43.063358	3.349999	43.529932
	1.747587	-3.998431	41.167316	1.597286	38.766172
	2.043124	-3.042711	43.063358	3.190661	43.211308
	1.402793	-2.405565	41.957334	2.712649	42.264417
	1.969240	-1.609133	47.013446	4.146686	49.550999
	1.082627	-3.998431	42.431344	2.393974	40.826887
	1.944612	-4.954149	42.905355	2.553311	40.504516
	0.860974	-3.679858	42.273341	3.190661	41.784144
	1.698330	-2.246279	40.377299	2.871986	41.003006
	1.033371	-4.954149	42.115337	1.597286	38.758474
	1.673702	-3.679858	42.273341	3.828011	42.421494
	1.082627	-3.679858	42.747351	4.146686	43.214180
	1.747587	-2.883425	43.537369	6.536749	47.190692
	1.057999	0.143018	43.695372	6.058736	49.897127
	1.796843	-2.883425	41.641327	6.377411	45.135313
	1.353536	-4.157717	42.905355	3.828011	42.575649
	1.821471	-3.201998	42.747351	5.102711	44.648064
	1.353536	-1.449847	44.485390	5.899399	48.934942
	1.747587	-2.564852	41.483323	3.668674	42.587145
	1.427421	-3.998431	40.535302	2.712649	39.249520
	1.575190	-4.476290	43.853376	2.234636	41.611722
	1.328908	-3.998431	42.589348	3.349999	41.940916
	1.796843	-3.998431	42.273341	2.712649	40.987559
	1.944612	-1.927706	43.063358	3.509336	44.644988
	1.846099	-3.201998	42.273341	3.509336	42.580678
	1.550562	-3.839144	41.009313	2.553311	39.723480
	1.870727	-2.724139	45.907421	4.465361	47.648644
	1.427421	-3.042711	40.535302	1.437949	38.930539
	1.722958	-3.201998	42.115337	2.871986	41.785325
	1.575190	-3.042711	42.747351	3.190661	42.895301
	1.919983	-3.042711	41.799330	4.146686	42.903305
	1.722958	-4.157717	43.063358	4.784036	43.689677
	2.117009	-3.361285	42.905355	4.465361	44.009431
	2.018496	-2.724139	43.063358	7.014761	47.353981
	2.264777	-2.246279	43.063358	4.306024	45.123103
	2.190893	1.417310	43.379365	5.421386	50.218062
	2.240149	-1.609133	43.379365	4.306024	46.076256
	2.412546	-1.131274	43.853376	4.943374	47.665476
	2.437174	0.620878	45.907421	6.058736	52.587035
	2.486431	-1.609133	44.643393	4.465361	47.499621
	2.289405	-2.086993	44.643393	4.465361	47.021762
	3.028249	-1.290560	43.853376	4.146686	46.709502
	2.855852	1.098737	45.433411	4.943374	51.475522
	3.151390	-1.449847	43.221362	3.828011	45.599526
	3.151390	-0.494128	45.117404	5.899399	50.522675
	3.742465	-2.086993	45.117404	4.943374	47.973785
	3.249903	0.939451	44.327386	7.333436	52.600273
	4.259656	1.735883	46.381432	5.899399	54.016714
	3.939490	1.258024	44.959400	7.333436	53.550860
	4.407425	1.258024	47.171449	7.174099	55.603572
	4.038003	-0.016268	47.645460	8.448799	56.077990
	5.023128	2.532316	47.329453	6.696086	56.557855
	4.653706	4.603041	46.855442	9.245486	60.703969
	5.638831	2.691602	48.593481	5.899399	57.184482
	5.318666	4.443754	49.857509	8.289461	62.590724
	6.353047	5.558759	51.753551	9.086149	66.398459
	5.540319	5.240187	51.121537	7.652111	64.013834
	6.796354	6.673765	49.699505	7.492774	63.866044
	6.623957	7.948057	53.017579	9.882836	70.848472
	7.732223	7.629484	52.385565	9.086149	69.101197
	7.264288	9.063062	54.913621	12.910248	76.886932
	8.495695	9.700209	56.019645	11.794886	77.514740
	8.692720	10.974500	55.071624	11.794886	77.841011
	9.948754	13.363798	59.495722	15.300311	88.159831
	10.244292	14.319517	60.285740	14.503624	89.108880
	11.451071	15.912382	61.707771	18.327724	95.947877
	11.845121	15.115949	62.023778	16.415674	93.555401
	13.248924	16.390241	62.339785	18.327724	97.057750
	13.741487	17.186674	61.233761	16.256336	94.676771
	14.578844	23.398847	69.607946	18.327724	111.334517
	15.342316	22.124555	67.711904	19.761761	109.598220
	16.943144	20.690977	68.027911	19.124411	107.843299
	18.026782	25.469572	71.187981	21.673811	118.331364
	19.701495	26.106718	71.029978	22.629836	119.766531
	21.056043	30.726026	76.718104	23.904536	131.348666
	22.706128	31.044600	76.560100	26.135261	133.739960
	24.306957	32.478178	79.404163	27.091286	138.973627
	26.129439	35.663908	82.090223	29.162674	146.916804
	27.459358	37.256773	83.196247	30.118699	150.571719
	29.035559	40.920362	84.302272	31.712074	156.934708
	30.882669	42.194654	90.938419	33.464786	166.597859
	30.759529	48.406828	92.202447	38.244911	178.854185
	32.434242	47.769682	92.992464	38.085574	178.847720
	33.936558	50.318266	95.204513	38.563586	184.086365
	35.488131	52.866850	95.520520	41.750336	190.137706
	37.236729	56.052580	100.734635	41.750336	198.537552
	38.665161	59.079023	103.420695	46.052449	208.552167
	39.798056	63.061186	105.790748	46.689799	215.541732
	41.398885	65.928343	108.318804	48.761186	223.008332
	42.704176	67.361922	109.740835	48.283174	225.385930
	44.428146	71.344084	111.636877	50.195224	233.176185
	45.487156	78.671263	120.011063	54.975349	253.657674
	46.767820	80.741988	119.537052	56.728061	257.007101
	47.802202	84.883437	124.435161	59.436799	268.755396
	48.368649	88.228453	127.121220	62.304874	277.654547
	49.600056	94.918486	130.281290	66.447648	291.647425
	51.176257	101.289946	137.391448	69.793736	308.475130
	52.235267	104.794249	141.183532	74.095849	320.073629
	53.688328	109.891417	145.449626	76.963924	332.304967
	55.116760	116.103591	151.295756	82.859411	350.258757
	56.101886	120.085753	154.613829	83.815436	358.515018
	57.530319	128.050078	160.143952	91.304299	379.498328
	57.702716	132.669387	165.674074	92.100986	390.444447
	58.909495	139.359420	171.836211	96.243761	407.439391
	58.712470	144.456588	177.208330	100.386536	422.051453
	59.500570	149.713042	182.896456	103.891961	436.501459
	59.328173	154.013778	184.950501	107.078711	446.042990
	58.786354	159.907378	194.272708	109.946786	464.126871
	59.131148	163.570967	196.326753	113.292873	473.190594
	58.663213	166.915984	198.854809	115.364261	481.135054
	58.958751	170.420287	203.436911	118.391673	492.248871
	58.663213	174.402449	207.070991	121.737761	503.211202
	58.983379	175.676742	207.703005	122.215774	505.595520
	58.958751	178.543898	214.655159	124.605836	517.804893
	57.801228	178.066039	211.021079	124.924511	514.011629
	58.564701	180.614623	215.761184	127.951924	524.327730
	57.604203	181.888915	216.867208	129.704636	528.460759
	57.037756	182.685348	216.235194	129.704636	528.625178
	56.495937	184.915359	218.921254	132.572711	536.409323
	56.422052	181.570342	217.183215	129.545299	528.298856
	56.298911	181.411056	217.815229	133.050724	532.277008
	55.116760	180.136764	216.709205	130.023311	526.869279
	54.599569	182.048202	216.867208	131.776024	530.691433
	53.047996	184.278213	215.445177	130.979336	530.702725
	52.777087	180.614623	218.921254	129.704636	529.240513
	51.348654	178.225325	214.971166	129.545299	522.741790
	50.412785	178.384612	214.023145	128.907949	521.315706
	49.329146	177.110320	213.075124	128.429936	518.615380
	48.762699	175.676742	209.757051	128.748611	514.182403
	47.235754	174.402449	211.179082	126.039874	511.621405
	46.250629	176.154601	209.915054	128.270599	514.340254
	45.216247	174.243163	209.441044	127.633249	511.317455
	45.068478	171.057433	206.912988	125.561861	503.532282
	43.689302	168.986708	204.226928	126.517886	499.731523
	42.408639	169.623854	202.962900	124.446499	497.033253
	41.004834	172.650298	204.226928	126.517886	503.395112
	39.871940	168.986708	203.120904	124.446499	496.554111
	38.098714	164.048827	199.486823	123.012461	486.548111
	37.483010	160.863097	196.800764	119.188361	476.852222
	35.586644	159.907378	192.534669	118.710349	471.152396
	34.379865	157.518080	192.692673	114.089561	464.300314
	32.705151	155.765929	190.954634	113.930224	460.650787
	31.276719	152.420913	187.320554	111.858836	451.600302
	29.651262	149.075896	185.266508	108.990761	443.333165
	29.799031	146.686599	181.474424	107.078711	435.239734
	28.666137	142.704436	175.786298	102.457924	420.948658
	27.410102	139.996566	179.262375	101.820574	421.079514
	25.735389	134.740111	171.362200	99.271174	405.373485
	23.839022	131.395094	168.834144	96.403099	396.632337
	22.607615	128.368651	165.674074	94.650386	388.693111
	21.770259	127.094359	161.565983	92.260323	380.920666
	19.430586	121.200759	160.617962	90.666949	372.485669
	18.494717	116.103591	154.771833	88.276886	359.152309
	17.066285	112.440001	150.979749	84.293449	347.713198
	16.155044	107.502120	147.345668	82.540736	337.388524
	14.677356	104.475676	143.237577	79.194648	326.907902
	14.012396	102.564238	140.551518	79.513323	322.629079
	14.184793	96.829924	135.337402	72.502473	304.669800
	12.756362	91.254897	131.387315	69.156386	291.798597
	11.943633	85.998442	128.069241	67.084999	281.152682
	10.761483	82.971998	123.961150	63.738911	270.672059
	9.899498	77.715544	117.957017	59.436799	255.109360
	8.939001	77.237685	116.850993	58.640111	252.728788
	8.766604	70.866225	112.110888	55.294024	238.271136
	7.215032	62.264753	105.790748	50.673236	218.728737
	7.018007	62.742613	105.000730	49.876549	217.619892
	6.082138	59.238310	100.576632	48.601849	208.416791
	5.983625	58.919737	97.732569	46.689799	203.342105
	5.047756	51.273985	94.414496	42.387686	188.076166
	5.392550	47.610396	91.412429	41.272324	180.295148
	4.481309	45.221098	88.252359	39.200936	172.674393
	4.653706	42.672514	85.408296	38.244911	166.325721
	3.816350	39.486784	78.140135	32.190086	149.817005
	4.136515	36.938200	80.984198	34.739486	152.661884
	2.781968	32.159605	75.612079	29.800024	137.571708
	2.954365	28.655302	71.503988	26.772611	126.931901
	2.461802	27.699583	71.503988	26.135261	125.338832
	2.412546	26.743864	68.343918	23.745199	118.832981
	2.067752	24.513853	65.499855	22.948511	112.962219
	2.363290	22.124555	66.289873	20.239773	108.654201
	1.673702	20.690977	63.129802	19.124411	102.945190
	2.117009	18.460966	62.339785	19.124411	99.925162
	1.969240	15.912382	60.127736	17.053024	93.093142
	2.092380	14.797377	56.335652	15.459649	86.592677
	1.673702	17.186674	59.811729	16.734348	93.732752
	2.117009	11.770933	54.123603	13.228924	79.123460
	1.476677	10.178068	53.491589	14.662961	78.332618
	2.067752	9.700209	52.859575	11.954224	74.514007
	1.501305	10.018782	50.963533	14.184949	75.167263
	2.018496	7.470198	51.437544	8.608136	67.515877
	1.624446	7.948057	48.909488	10.998199	67.855743
	2.240149	6.036619	47.171449	7.492774	60.700842
	1.427421	4.762327	47.013446	6.377411	58.153184
	2.043124	3.488035	45.117404	6.218074	54.823512
	1.476677	3.647321	46.539435	4.943374	55.130130
	2.018496	3.010175	45.433411	5.102711	53.546297
	1.255024	4.921613	45.275407	6.377411	56.574432
	2.117009	3.806608	45.749418	5.740061	55.296087
	1.279652	1.576597	43.537369	4.784036	49.898002
	2.461802	1.576597	42.589348	3.987349	48.153293
	1.673702	1.258024	43.537369	4.146686	48.942079
	2.240149	0.780165	39.745285	2.234636	42.760085
	2.018496	-0.016268	41.641327	3.509336	45.134395
	2.880481	-0.016268	42.431344	3.987349	46.402425
	2.018496	0.939451	42.115337	4.784036	47.838824
	3.151390	0.780165	41.957334	6.058736	48.796234
	2.757340	3.169462	42.431344	3.987349	49.588155
	3.397671	-0.016268	41.167316	5.899399	47.050447
	2.806596	-0.812701	41.641327	4.465361	45.293987
	3.767093	-1.131274	40.851309	4.306024	44.026059
	3.422299	1.895170	41.641327	5.102711	48.639208
	4.284284	4.284467	43.063358	5.580724	52.928549
	3.914862	3.010175	42.747351	6.536749	52.294275
	4.776847	2.691602	44.485390	6.058736	53.235728
	4.456681	3.328748	44.169383	6.377411	53.875542
	5.121641	3.010175	43.379365	7.652111	54.041652
	4.727590	3.806608	47.487456	8.767474	60.061538
	5.121641	4.762327	45.907421	9.404824	60.074572
	4.407425	9.063062	48.593481	12.113561	69.770104
	5.170897	6.673765	47.803463	10.520186	64.997414
	4.776847	6.514479	47.961467	14.184949	68.660894
	5.121641	5.877333	47.013446	13.069586	65.960364
	4.382797	6.833052	49.225495	13.866274	69.924820
	4.801475	10.496641	50.647526	13.706936	74.851103
	4.136515	7.151625	49.857509	13.228924	70.238057
	4.481309	8.585203	51.279540	13.866274	73.731017
	3.964118	9.222349	50.489523	15.300311	75.012183
	4.235028	10.178068	55.071624	14.662961	79.912653
	3.865606	8.107344	49.699505	10.998199	68.805047
	4.382797	9.859495	53.017579	14.503624	77.380697
	3.643953	8.425916	51.753551	13.069586	73.249053
	3.988747	8.903776	53.333586	13.866274	76.103635
	3.348415	9.063062	51.595547	13.228924	73.887533
	3.865606	11.293074	56.809663	13.228924	81.331660
	3.422299	9.859495	52.859575	14.503624	77.222694
	3.643953	9.700209	54.913621	14.822299	79.436127
	3.643953	9.859495	54.597614	15.459649	79.916757
	4.210400	6.833052	50.331519	11.954224	69.118794
	3.865606	9.063062	54.281607	14.184949	77.529618
	4.358168	8.266630	53.017579	14.981636	76.265845
	3.988747	9.222349	53.333586	14.344286	76.900221
	4.629078	8.425916	53.649593	15.937661	78.013170
	3.939490	7.151625	53.333586	14.344286	74.829496
	4.653706	7.310911	51.595547	14.981636	73.888094
	4.555194	6.355192	52.701572	11.794886	70.851650
	4.973872	11.611647	54.281607	13.547599	79.440852
	5.121641	8.107344	53.491589	13.069586	74.668519
	5.515691	8.266630	54.597614	13.388261	76.252505
	5.466434	7.470198	51.121537	12.113561	70.705295
	5.934369	8.266630	55.703638	13.866274	77.836542
	6.131394	7.788771	52.543568	11.476211	71.808550
	6.550072	8.585203	54.439610	13.547599	76.572412
	6.574700	8.903776	54.439610	13.866274	77.209660
	6.894866	9.859495	54.597614	14.503624	78.960732
	7.215032	8.585203	56.335652	15.778324	80.699179
	7.953876	7.788771	53.807596	14.184949	75.781315
	8.347926	9.222349	54.597614	15.140974	78.960936
	8.741976	11.293074	57.283673	14.822299	83.399045
	9.160654	10.974500	56.651659	17.371699	84.997858
	9.234539	13.204512	57.757684	16.893686	87.855881
	9.333051	11.133787	59.337719	18.487061	88.958567
	10.342805	13.523085	58.073691	16.256336	87.853111
	10.170408	14.000944	58.547701	15.459649	88.008294
	11.204789	11.770933	58.073691	14.184949	84.029572
	11.303302	13.682371	59.021712	15.618986	88.323069
	12.214543	15.434522	61.707771	17.690373	94.832667
	12.337683	17.505247	62.339785	17.531036	97.376068
	13.347437	20.690977	64.551834	18.965074	104.207885
	13.618346	19.735258	64.235827	19.761761	103.732846
	14.578844	21.009550	66.131869	20.239773	107.381193
	14.701984	21.328123	64.867841	21.673811	107.869775
	15.884135	23.717420	69.133936	21.355136	114.206492
	15.539341	26.584578	68.817928	22.629836	118.032342
	16.450582	27.062437	70.713971	25.179236	122.955644
	16.549094	26.743864	70.871974	23.745199	121.361037
	17.829757	32.478178	73.716037	28.843999	135.038214
	17.854385	30.407453	75.770083	25.816586	131.994122
	19.307445	33.593183	76.560100	28.684661	138.837944
	19.036536	32.637465	75.454076	25.816586	133.908126
	20.735877	39.008924	79.246160	27.887974	146.143057
	20.661993	35.982481	76.876107	27.728636	140.587224
	22.016540	39.646071	84.302272	31.393399	155.341741
	21.844143	40.442503	85.092289	29.959361	155.494153
	23.272575	42.672514	84.144268	32.190086	159.006868
	23.001666	49.999693	88.252359	34.898823	173.150875
	23.789766	47.769682	88.726370	36.014186	172.510238
	23.863650	47.610396	88.884373	35.695511	172.190280
	24.725635	50.158980	94.414496	37.448224	182.021699
	24.996545	52.548277	92.202447	39.519611	184.270334
	25.907786	59.079023	97.100555	41.590999	197.770577
	25.858529	54.459715	95.046509	38.882261	188.388486
	27.311589	57.645445	98.680590	42.865699	199.191733
	26.991424	61.468321	101.682657	46.371124	209.522101
	28.469112	63.539046	104.368716	45.893111	213.800873
	27.878037	68.636213	105.316737	50.354561	224.307511
	28.863162	66.884062	106.580765	47.486486	220.951313
	28.444484	68.317640	108.792814	50.991911	228.102366
	29.404981	71.821944	110.372849	51.629261	233.824054
	28.912418	72.936949	113.374916	52.585286	238.897151
	29.700519	75.644819	114.164933	54.019324	243.829076
	29.552750	77.237685	116.534986	53.859986	247.632656
	30.488619	80.264128	119.379049	55.931374	255.574550
	30.020684	80.423414	118.431028	57.524749	256.379190
	31.301348	81.697707	121.907105	57.684086	261.288897
	30.463991	81.856993	123.487140	59.755474	265.099606
	31.252091	84.564864	123.487140	60.074149	268.126151
	30.808785	88.547026	126.489206	62.464211	277.500443
	31.227463	88.865599	127.279224	65.332286	281.477109
	30.710272	88.069167	126.647210	63.738911	278.455287
	30.907297	90.936324	132.809346	67.403673	291.149343
	30.414735	91.892043	131.387315	66.128974	289.408331
	31.301348	94.122054	132.177332	67.084999	293.384384
	30.907297	94.281340	133.441360	67.722348	295.445049
	31.227463	95.555632	132.335336	67.084999	294.975966
	30.685644	94.440626	135.337402	66.925661	296.703689
	31.128951	96.352064	135.653409	67.722348	299.727822
	30.537875	97.785643	135.969416	68.997049	302.752108
	30.611760	95.714919	135.495406	67.563011	298.773335
	30.439363	94.599913	133.757367	66.128974	294.486253
	30.636388	97.626356	135.969416	69.475061	303.070834
	30.242338	96.829924	139.445493	68.359698	304.635115
	30.390107	96.829924	134.073374	67.722348	298.625647
	29.552750	98.582076	137.549451	69.475061	305.606588
	29.971428	96.352064	135.021395	67.563011	298.936471
	29.799031	97.785643	135.653409	69.634399	303.073451
	29.651262	96.989211	138.181465	69.634399	304.805074
	29.010931	98.582076	138.497472	73.139824	310.219371
	28.321343	98.263503	136.759434	70.112411	305.135347
	28.173574	97.626356	135.811413	71.227774	304.665543
	28.075062	97.944930	136.759434	69.953074	304.657437
	27.434730	95.874205	134.547385	71.068436	301.490026
	27.163821	96.192778	138.813479	69.156386	304.162643
	26.622002	96.511351	134.547385	69.315723	300.374459
	26.227951	97.307784	133.283357	66.447648	297.038789
	25.661504	95.396346	133.915371	66.766323	296.078040
	25.513735	93.484908	131.071308	66.447648	291.003864
	25.119685	91.732756	132.335336	65.332286	289.400378
	24.750263	92.369902	131.545318	65.650961	289.566181
	25.119685	90.617751	130.281290	65.332286	286.231327
	24.208444	90.936324	129.807280	64.694936	285.438539
	23.986791	89.502745	126.489206	62.942224	278.934175
	23.297203	87.272734	126.173199	63.898249	277.344182
	22.878525	87.272734	125.541185	62.942224	275.756143
	21.918028	85.042723	125.857192	64.216924	275.116839
	21.918028	85.520583	124.593164	61.030174	271.143920
	21.129927	85.520583	123.961150	62.464211	271.945943
	21.006787	82.016279	119.063042	58.002761	259.082082
	19.701495	81.219847	122.381115	60.552161	264.153123
	19.849264	79.626982	120.485073	58.640111	258.752166
	18.888767	82.016279	121.275091	59.436799	262.728169
	19.061164	78.193404	116.534986	54.975349	249.703737
	17.583476	76.441252	115.902972	54.656674	247.000897
	17.977526	72.936949	111.952884	52.425949	237.315782
	17.115541	73.414808	117.483007	53.063299	243.961113
	17.189426	73.574095	113.532919	52.744624	239.851638
	16.352069	72.618376	110.846860	51.629261	235.094497
	16.253557	69.432646	109.266825	49.717211	228.416682
	15.219175	68.636213	107.844793	50.832574	227.313580
	15.243803	67.521208	109.424828	49.557874	226.503910
	14.578844	66.406202	106.580765	49.239199	222.226166
	14.578844	65.609770	104.526719	49.079861	219.216350
	13.544462	64.813338	105.474741	48.920524	219.208602
	14.307934	61.627607	102.472674	48.283174	212.383455
	13.569090	61.627607	101.050643	47.008474	209.686723
	13.470577	57.645445	99.154601	44.777749	201.577794
	12.830246	57.326872	98.206580	43.184374	198.717825
	13.199668	55.893293	97.574566	41.750336	195.218195
	11.869749	56.530439	96.152534	41.750336	194.433310
	12.288427	53.981855	93.466475	39.678949	187.127278
	11.623468	50.796125	94.888506	38.882261	184.566892
	11.746608	50.318266	92.044443	38.563586	180.926295
	10.884624	49.203260	90.938419	36.970211	177.111890
	11.451071	50.318266	90.464408	36.970211	177.752885
	10.638342	44.743238	85.250293	33.783461	163.776992
	11.032392	44.106093	88.568366	34.261474	166.935932
	10.071895	45.539671	85.724303	36.492199	167.756173
	10.761483	42.672514	85.092289	33.624124	161.388926
	9.973383	45.380384	85.250293	34.739486	165.370163
	10.736855	41.876081	83.670258	32.668099	158.214438
	9.456192	39.964643	81.774216	34.739486	156.478345
	10.441317	39.964643	83.512254	32.030749	155.507646
	9.677845	38.690351	80.668191	33.146111	152.504654
	10.047267	39.805357	79.246160	29.481348	148.532865
	9.283795	36.301054	78.772149	30.278036	145.351239
	9.850242	33.593183	76.086090	26.931949	136.611221
	8.840489	37.416059	78.772149	29.959361	146.147570
	9.677845	33.911756	76.402096	27.250623	137.564476
	8.889745	32.478178	75.612079	25.338573	133.428831
	9.505448	34.867475	76.718104	27.409961	138.995540
	8.766604	32.956038	74.980065	26.294599	134.230701
	9.603961	32.000318	72.294006	25.179236	129.473560
	9.062142	29.292448	73.558034	24.063874	126.914355
	9.530076	28.973875	72.610012	24.382548	125.966436
	9.308423	33.115324	75.138069	27.409961	135.663353
	9.456192	31.363172	72.452009	25.657249	129.472430
	9.259167	28.973875	69.923953	23.745199	122.643027
	9.850242	27.858870	72.452009	24.860561	125.171440
	9.259167	29.451735	70.713971	25.019899	125.185604
	9.727101	31.203886	73.400030	27.409961	132.013877
	9.308423	33.115324	73.400030	26.294599	132.809953
	9.677845	28.018156	68.975932	22.311161	119.305249
	9.333051	28.655302	72.136002	23.745199	124.536502
	9.924126	27.540297	69.133936	20.877123	117.551356
	9.456192	27.540297	69.923953	22.151823	119.616073
	9.850242	29.292448	71.187981	24.063874	124.544303
	9.406936	30.248167	72.452009	24.541886	127.242062
	10.071895	28.655302	69.291939	23.107848	121.055090
	9.850242	30.248167	74.980065	24.382548	129.610780
	10.096523	28.336729	69.923953	24.382548	122.643231
	9.973383	27.699583	70.081957	23.107848	120.889388
	10.835367	29.451735	71.977998	24.541886	125.971619
	10.490573	29.611021	70.555967	24.223211	124.390199
	10.589086	29.451735	71.819995	25.019899	126.291628
	10.244292	29.133161	72.294006	25.497911	126.925078
	10.318176	31.044600	73.874041	27.569299	132.487939
	11.032392	28.018156	70.397964	24.541886	122.958006
	10.933880	28.336729	69.765950	22.151823	120.254502
	11.180161	28.336729	69.765950	25.338573	123.441252
	10.958508	29.611021	74.190048	26.135261	129.936329
	11.401814	28.973875	70.871974	25.179236	125.025085
	11.451071	30.566740	73.558034	25.179236	129.304010
	11.869749	32.796751	72.452009	23.267186	128.515946
	11.845121	30.248167	71.977998	24.701224	126.927389
	12.214543	30.407453	73.874041	25.975924	130.257418
	12.017518	31.522459	74.664058	25.816586	132.003103
	12.559337	30.566740	73.558034	26.135261	130.260035
	11.869749	30.248167	74.664058	25.657249	130.569474
	12.608593	30.566740	72.926020	25.179236	128.671996
	12.682477	33.752470	73.558034	28.525324	135.835827
	12.953387	32.000318	77.192114	26.453936	135.646368
	13.002643	33.433897	76.718104	30.915386	141.067387
	13.347437	31.681745	75.454076	26.772611	133.908432
	13.322809	34.708189	80.194181	30.437373	145.339743
	13.963140	35.345335	74.348051	27.728636	137.422022
	13.544462	35.823194	79.720170	30.278036	145.821400
	14.332562	32.637465	75.928086	27.091286	135.656836
	13.889256	35.026762	78.298139	27.728636	141.053537
	14.701984	35.663908	78.772149	28.684661	143.120718
	13.889256	39.008924	79.878174	29.959361	148.846459
	14.554215	36.778913	78.298139	29.640686	144.717738
	14.480331	35.345335	81.616212	27.569299	144.530845
	15.046778	37.416059	79.878174	29.800024	147.094257
	14.677356	38.531065	81.300205	30.915386	150.746656
	15.687110	39.008924	80.036177	29.003336	148.048437
	15.416200	39.964643	81.142202	32.508761	153.615606
	16.155044	39.168211	83.354251	30.437373	152.959835
	15.859506	40.920362	83.986265	32.827436	157.734063
	16.647607	41.238935	83.828261	34.102136	159.169332
	16.105788	43.787519	84.460275	33.305449	161.553243
	16.992401	43.628233	85.566300	35.217499	164.412031
	16.253557	42.194654	83.038244	33.146111	158.379009
	17.189426	44.424665	89.516387	36.970211	170.911264
	16.598350	43.946806	86.514321	35.058161	165.519288
	17.337195	44.743238	87.146335	36.492199	168.381772
	16.967772	46.176817	87.936352	35.695511	169.808680
	17.558848	48.406828	86.356317	34.261474	169.024619
	17.435707	49.362547	90.622412	35.854849	175.839807
	18.026782	46.813963	89.200380	37.129549	173.143891
	17.632732	48.725401	90.148401	36.810874	175.684676
	18.248435	51.592558	92.992464	39.838286	184.423308
	18.149923	50.955412	90.464408	37.926236	179.346056
	18.765626	50.477552	92.044443	38.722924	181.244919
	18.494717	50.636839	90.780415	40.794311	182.211565
	18.814883	51.114699	92.992464	39.200936	183.308099
	18.814883	51.592558	93.940485	41.909674	187.442717
	19.036536	52.229704	93.940485	40.953649	187.123838
	19.135048	54.300428	93.782482	43.343711	191.426621
	19.504470	54.141142	96.784548	41.272324	192.198014
	19.307445	54.937574	95.836527	44.299736	195.073837
	19.356702	54.459715	96.310537	42.069011	192.839264
	19.676867	58.123305	97.732569	44.299736	200.155610
	19.479842	56.211866	96.626545	41.909674	194.748085
	19.627611	56.052580	96.468541	42.706361	195.227482
	19.873892	57.486158	100.734635	43.025036	201.245830
	19.824636	58.123305	99.944618	43.025036	201.092959
	20.169430	56.689726	99.154601	43.025036	198.869363
	20.021661	58.441877	98.838594	43.503049	200.783520
	19.997033	58.601164	96.784548	41.909674	197.295386
	20.415711	60.034742	101.998664	44.937086	206.970492
	20.095546	59.397596	100.576632	44.299736	204.273965
	20.046289	57.804731	99.786615	43.981061	201.572407
	20.070917	60.990461	102.156667	47.486486	210.633615
	20.218686	62.105467	101.208646	46.052449	209.366562
	19.873892	62.583327	102.946685	48.920524	214.450535
	20.243314	61.786894	101.524653	45.893111	209.204658
	19.849264	61.468321	102.314671	48.283174	212.066165
	20.095546	61.786894	103.420695	46.371124	211.578713
	20.169430	64.494765	103.578699	48.283174	216.356637
	20.391083	62.424040	102.788681	46.689799	211.902519
	19.701495	62.901900	104.210713	45.096424	212.209036
	19.800008	62.264753	103.104688	45.893111	211.262552
	19.504470	63.857619	105.790748	49.079861	218.728227
	19.898520	61.946180	104.210713	46.689799	212.846692
	19.529098	62.264753	102.156667	46.530461	210.951882
	19.898520	66.246916	107.844793	48.123836	222.215545
	19.208933	64.016905	104.210713	49.079861	217.307479
	19.479842	61.149748	103.420695	46.689799	211.260242
	18.987280	64.016905	106.106755	49.398536	219.522196
	18.987280	62.424040	103.420695	47.964499	213.809234
	18.667114	66.246916	103.578699	48.601849	218.427463
	18.864139	63.220472	104.842727	50.035886	218.099085
	18.199179	61.627607	103.578699	47.805161	213.011467
	18.864139	63.698332	105.474741	50.832574	220.005646
	18.051410	63.379759	105.158734	49.079861	217.618354
	18.913395	65.131911	102.630678	48.761186	216.523774
	17.706617	63.061186	104.210713	48.123836	215.395735
	18.445461	60.671889	102.788681	47.645824	211.106393
	17.337195	61.309034	102.472674	46.052449	209.834157
	18.248435	60.990461	102.630678	44.618411	208.239550
	17.509591	63.857619	101.998664	45.415099	211.271381
	17.657360	60.353316	100.260625	44.777749	205.391689
	16.992401	56.849013	100.418629	43.025036	200.292677
	17.435707	60.671889	101.682657	46.371124	208.725669
	16.696863	59.079023	100.892639	44.459074	204.430736
	16.967772	57.486158	100.892639	44.777749	203.156546
	16.549094	57.804731	98.048576	44.459074	200.312381
	17.140169	59.716169	101.524653	44.777749	206.018571
	16.401325	57.486158	98.048576	45.096424	200.631158
	16.549094	55.574720	97.574566	42.865699	196.014984
	16.327441	54.459715	96.626545	43.503049	194.589308
	16.376697	56.849013	96.942552	43.343711	197.135275
	16.056532	55.734007	96.942552	41.431661	194.108220
	15.859506	56.211866	97.732569	42.547024	196.491459
	15.760994	52.548277	93.940485	38.882261	185.371023
	15.662481	55.256147	97.416562	42.228349	194.901058
	15.293059	55.256147	96.784548	42.387686	194.428382
	15.391572	56.052580	94.888506	41.272324	192.213410
	15.293059	54.459715	98.206580	43.184374	195.850668
	15.514713	53.026136	93.782482	40.316299	187.124917
	15.268431	52.388990	94.256492	40.634974	187.280456
	14.997522	51.751844	93.624478	39.041599	184.417921
	15.268431	53.185423	93.150468	39.997624	186.333514
	14.849753	53.663283	95.204513	41.272324	190.140119
	14.923637	50.955412	94.098489	39.678949	184.732849
	14.628100	51.114699	92.992464	40.953649	185.060811
	14.923637	50.158980	92.518454	39.360274	182.037707
	14.455703	50.636839	92.518454	39.838286	182.993579
	14.701984	50.318266	91.412429	39.360274	181.090969
	14.480331	50.318266	93.940485	40.953649	185.212400
	14.381818	48.406828	89.042377	37.607561	175.056766
	14.110909	47.132536	90.148401	39.041599	176.322536
	14.283306	46.813963	89.358384	36.332861	172.505208
	13.938512	47.769682	88.410363	36.014186	172.194231
	14.086281	49.362547	90.306405	36.810874	176.479825
	13.593718	46.495390	88.726370	35.536174	170.757933
	13.741487	45.061811	88.252359	35.695511	169.009681
	13.938512	46.654677	88.568366	36.332861	171.555904
	13.593718	45.858244	87.620345	35.058161	168.536750
	13.544462	46.813963	85.092289	35.376836	167.283088
	13.815371	45.061811	89.200380	36.014186	170.276377
	13.421321	44.743238	86.830328	35.217499	166.791065
	13.618346	44.265379	86.356317	36.810874	167.432569
	13.101155	45.221098	87.778349	36.810874	169.810320
	13.248924	42.353941	84.302272	36.970211	163.626424
	13.002643	42.194654	85.408296	32.827436	160.430386
	13.421321	44.265379	84.934286	36.492199	165.691863
	13.175040	48.406828	90.622412	39.678949	178.708188
	13.642974	42.513227	85.250293	33.942799	161.706319
	13.150412	41.079649	83.986265	33.624124	158.690037
	13.322809	42.672514	83.512254	32.986774	159.171542
	13.002643	41.398222	85.724303	32.190086	159.312611
	13.372065	41.238935	83.038244	31.074724	155.351902
	12.904130	41.876081	84.460275	32.986774	159.323130
	13.224296	39.964643	83.354251	32.827436	156.146330
	12.854874	42.035368	83.038244	32.986774	158.060385
	13.273552	42.513227	84.302272	32.508761	159.324260
	13.125784	40.123930	82.722237	30.437373	153.283540
	13.248924	39.805357	82.722237	32.508761	155.036355
	12.904130	39.646071	83.038244	32.508761	155.193075
	13.396693	40.283216	83.038244	32.349424	155.670884
	13.002643	42.194654	81.774216	32.986774	156.955644
	13.273552	40.920362	86.198314	32.668099	159.786775
	13.125784	40.601790	83.196247	35.376836	159.174872
	13.396693	41.876081	84.144268	34.102136	160.122486
	13.175040	38.212492	80.668191	32.508761	151.389444
	13.642974	40.442503	80.352184	31.552736	152.347423
	13.495206	39.964643	83.354251	30.437373	153.756268
	13.667603	41.238935	82.406230	32.190086	155.835251
	13.396693	40.601790	82.722237	32.349424	155.673450
	13.667603	36.938200	80.668191	29.640686	147.247077
	13.150412	40.920362	83.038244	32.986774	156.945380
	13.864628	39.646071	81.616212	30.915386	152.177669
	13.470577	41.079649	79.562167	30.756049	151.397864
	14.086281	40.920362	83.038244	33.464786	157.423392
	13.864628	39.486784	83.038244	32.827436	155.352463
	14.135537	42.353941	84.460275	35.058161	161.872377
	13.618346	42.513227	82.722237	34.739486	159.974950
	14.234050	44.106093	84.934286	35.058161	164.098539
	13.766115	41.557508	83.670258	34.102136	159.329902
	14.381818	39.168211	83.038244	34.420811	156.627266
	14.283306	41.557508	84.460275	33.942799	159.960582
	14.529587	40.601790	82.880240	34.420811	157.902841
	14.160165	45.539671	83.512254	33.942799	162.994724
	14.874381	41.557508	85.566300	34.420811	161.544619
	14.234050	40.601790	83.986265	33.464786	158.052840
	14.652728	42.513227	84.934286	32.508761	159.956274
	14.628100	43.309660	85.882306	34.580149	163.772115
	14.874381	45.380384	83.512254	33.624124	162.516762
	14.652728	46.495390	87.304338	34.898823	168.698552
	14.997522	42.194654	84.934286	34.898823	162.027764
	14.923637	43.309660	85.566300	33.624124	162.500083
	15.440828	41.079649	84.302272	33.146111	158.528031
	15.046778	42.991087	86.672324	36.651536	166.314947
	15.662481	45.539671	87.304338	36.492199	169.336208
	15.317688	44.424665	84.934286	35.536174	164.895125
	15.563969	43.628233	86.356317	35.058161	165.042711
	15.293059	41.876081	85.250293	35.058161	162.184535
	15.687110	44.265379	86.830328	35.854849	166.950555
	15.588597	43.787519	85.882306	36.014186	165.684012
	15.933391	44.583952	86.672324	33.146111	164.402387
	15.465456	44.902525	86.988331	34.102136	165.992992
	16.105788	46.176817	88.726370	36.173524	171.076710
	15.465456	46.176817	88.568366	36.173524	170.918707
	16.105788	44.743238	86.040310	34.898823	165.682372
	15.662481	45.380384	89.990398	34.739486	170.110268
	16.253557	47.769682	89.042377	36.810874	173.622932
	15.810250	47.610396	90.306405	38.085574	176.002374
	16.401325	44.902525	87.620345	34.420811	166.943681
	15.834878	46.813963	89.674391	38.085574	174.573927
	16.253557	47.610396	89.200380	36.970211	173.780987
	16.056532	49.521833	92.834461	39.519611	181.875905
	16.401325	48.725401	90.464408	42.228349	181.418158
	16.179672	47.291822	89.832394	37.448224	174.572440
	16.622979	46.495390	90.148401	38.722924	175.366715
	15.958019	47.610396	89.990398	38.244911	175.845704
	16.746119	47.451109	90.938419	38.722924	177.112451
	16.228928	50.477552	90.780415	39.041599	180.299566
	16.770747	48.088255	90.622412	39.041599	177.752265
	16.672235	48.088255	91.570433	38.244911	177.903599
	16.746119	48.884687	90.938419	38.085574	177.908680
	16.253557	49.681120	90.780415	38.722924	179.184459
	16.992401	50.796125	92.360450	36.810874	179.967449
	16.327441	51.911131	93.624478	40.316299	185.851908
	16.893888	48.247541	92.044443	38.244911	178.536896
	16.746119	50.318266	92.834461	38.563586	181.716313
	17.066285	49.681120	90.938419	39.200936	179.820475
	16.820004	51.592558	95.362517	40.316299	187.271373
	17.041657	50.636839	92.360450	39.997624	182.994913
	16.918516	52.229704	93.940485	41.750336	187.920525
	16.721491	51.273985	93.150468	40.475636	184.900089
	16.770747	52.229704	93.150468	43.662386	189.042558
	16.943144	50.318266	95.362517	40.634974	186.315756
	16.622979	52.548277	94.098489	41.909674	188.556439
	17.041657	53.503996	93.782482	40.634974	187.921451
	16.647607	50.477552	92.202447	37.926236	180.606235
	16.820004	52.548277	95.046509	41.590999	189.185785
	16.647607	54.778288	96.626545	43.821724	195.226556
	16.795376	54.300428	99.312604	42.228349	195.841381
	16.770747	55.415434	95.678523	41.750336	192.844293
	16.549094	52.548277	94.414496	40.316299	187.279071
	16.721491	50.955412	93.940485	39.838286	184.734183
	16.401325	51.114699	94.414496	40.794311	186.323505
	16.647607	54.141142	96.626545	42.547024	193.314710
	16.475210	55.256147	96.310537	41.431661	192.998346
	16.376697	53.185423	95.362517	42.228349	190.776288
	16.155044	51.433271	94.098489	41.112986	186.644746
	16.450582	52.070417	94.730503	40.953649	187.754569
	15.982647	52.866850	94.256492	42.069011	189.192353
	16.327441	54.141142	96.942552	40.634974	191.718667
	15.810250	53.503996	93.940485	44.140399	191.584879
	16.302813	52.548277	94.888506	41.750336	189.187119
	15.637853	52.866850	95.678523	43.662386	192.207759
	16.352069	52.229704	93.466475	41.112986	186.809165
	15.834878	51.751844	94.730503	39.360274	185.842621
	16.302813	52.548277	94.888506	41.272324	188.709106
	15.588597	53.822569	94.572499	40.634974	189.030042
	15.760994	51.911131	94.256492	39.997624	186.165246
	15.416200	52.866850	95.678523	42.387686	190.933059
	16.031903	50.955412	92.202447	39.200936	182.358795
	15.317688	53.503996	96.942552	41.750336	192.196884
	16.056532	53.981855	93.308471	40.316299	187.606625
	15.268431	52.866850	94.572499	41.590999	189.030348
	15.884135	51.592558	95.046509	43.343711	189.982779
	15.096034	54.300428	94.730503	43.184374	192.215305
	15.859506	50.955412	94.888506	42.387686	188.231604
	15.416200	55.893293	95.678523	43.184374	194.756191
	15.884135	51.592558	93.466475	42.706361	187.765394
	15.268431	50.158980	93.624478	40.634974	184.418431
	15.760994	52.229704	94.414496	43.184374	189.828573
	15.169919	48.406828	89.832394	38.244911	176.484133
	15.785622	51.751844	95.520520	40.156961	187.429326
	14.825125	51.751844	93.466475	40.953649	186.171968
	15.563969	48.884687	92.202447	37.926236	179.013370
	14.751240	50.318266	92.992464	39.360274	182.671004
	15.317688	48.884687	90.306405	38.404249	177.595341
	15.145291	50.636839	93.308471	38.722924	182.668234
	15.194547	48.088255	90.622412	37.129549	175.840215
	15.071406	49.521833	92.202447	38.404249	180.128529
	14.923637	50.158980	92.676457	40.475636	183.311073
	14.800497	49.521833	92.518454	39.200936	181.241223
	15.120662	48.566114	90.622412	39.519611	178.708137
	14.775869	49.681120	95.046509	39.678949	184.406578
	14.825125	50.477552	91.412429	39.360274	181.250255
	14.800497	49.203260	91.886440	41.431661	182.521361
	14.849753	48.247541	91.096422	38.882261	178.226225
	14.603472	46.495390	87.778349	39.360274	173.634012
	14.603472	47.451109	91.412429	37.926236	176.789774
	14.529587	53.026136	91.254426	39.360274	183.640836
	14.578844	47.451109	89.990398	37.288886	174.730392
	14.825125	48.088255	90.622412	37.448224	176.158890
	14.899009	44.902525	86.988331	35.058161	166.949017
	14.234050	47.928968	90.464408	38.722924	177.116300
	14.825125	47.451109	87.936352	36.492199	171.879660
	14.529587	48.088255	90.464408	38.404249	176.956911
	14.849753	46.654677	89.042377	36.810874	172.507927
	14.061653	49.043974	90.938419	39.519611	179.502004
	14.578844	45.221098	86.830328	36.651536	168.702962
	14.504959	46.495390	90.464408	36.970211	173.930009
	14.529587	45.539671	87.620345	37.288886	170.448902
	13.963140	44.743238	86.988331	35.536174	167.267743
	14.849753	45.061811	87.462342	36.492199	169.016352
	13.790743	47.132536	89.358384	38.404249	174.895168
	14.480331	45.539671	86.988331	39.041599	171.569601
	13.913884	46.017530	91.254426	37.288886	174.560842
	14.554215	46.973249	88.094356	39.041599	174.109204
	13.963140	45.858244	88.410363	39.678949	173.947555
	14.431075	44.424665	88.094356	37.288886	169.807907
	13.790743	45.061811	86.356317	36.651536	168.069664
	14.357190	45.539671	89.358384	35.536174	170.434228
	13.963140	46.017530	85.882306	34.261474	166.161311
	14.578844	45.539671	87.936352	36.014186	169.490209
	13.667603	44.106093	87.936352	35.536174	167.578618
	14.357190	45.380384	87.936352	36.970211	170.286948
	13.692231	45.061811	87.146335	36.651536	168.859682
	14.504959	47.610396	87.620345	36.332861	171.563602
	13.741487	45.858244	88.410363	37.607561	171.876168
	14.504959	44.424665	87.778349	36.492199	168.695212
	13.741487	44.583952	87.304338	38.085574	169.973864
	14.578844	45.380384	87.778349	37.607561	170.766294
	13.766115	43.946806	89.516387	39.997624	173.460816
	14.234050	47.610396	89.674391	39.041599	176.326385
	13.741487	47.291822	89.042377	37.448224	173.782423
	14.184793	45.221098	88.094356	36.492199	169.807652
	13.445949	44.743238	86.830328	35.536174	167.109739
	14.209421	44.743238	90.622412	36.332861	171.698511
	13.544462	45.221098	86.830328	35.536174	167.587599
	14.184793	46.176817	87.620345	35.854849	169.652010
	14.110909	45.698957	88.726370	36.970211	171.395538
	14.603472	44.902525	87.620345	36.173524	168.696394
	13.864628	43.468946	86.040310	36.014186	165.523442
	14.603472	44.743238	88.568366	35.376836	168.688441
	13.667603	46.176817	86.988331	36.492199	169.657346
	14.455703	45.221098	87.936352	36.173524	169.330974
	14.135537	43.468946	87.462342	36.173524	167.104812
	14.652728	45.539671	88.410363	38.722924	172.672957
	13.839999	44.424665	87.620345	36.810874	168.855884
	14.677356	45.380384	86.514321	37.607561	169.502266
	14.209421	46.017530	89.200380	37.607561	172.825472
	14.529587	44.265379	87.462342	38.244911	169.972632
	14.061653	45.061811	87.620345	36.970211	169.652367
	14.628100	45.380384	86.356317	38.722924	170.459625
	14.110909	46.017530	88.568366	36.173524	170.759420
	14.751240	45.380384	88.094356	36.332861	169.807601
	14.037025	45.698957	88.410363	36.332861	170.442181
	14.800497	45.061811	88.094356	34.898823	168.054991
	14.184793	43.628233	86.356317	34.739486	164.724036
	14.825125	44.743238	89.832394	36.492199	171.067831
	14.381818	44.743238	88.726370	35.536174	169.005782
	14.948266	48.566114	88.568366	37.448224	174.582704
	14.480331	46.813963	89.200380	37.926236	173.940579
	15.022150	45.061811	87.462342	37.288886	169.813039
	14.701984	45.858244	90.464408	39.678949	176.001600
	14.825125	45.221098	88.726370	37.129549	171.077016
	15.022150	46.336103	87.304338	38.563586	172.204027
	15.243803	46.973249	89.674391	38.085574	174.733214
	14.849753	45.698957	89.674391	40.156961	175.530309
	15.317688	48.884687	90.622412	39.997624	179.504723
	15.194547	46.495390	92.676457	38.882261	178.054108
	15.317688	48.247541	88.410363	37.607561	174.265465
	15.194547	46.813963	89.516387	36.651536	172.981886
	15.096034	48.088255	91.886440	39.519611	179.494305
	14.874381	46.176817	88.884373	36.332861	171.394051
	15.194547	48.406828	90.938419	38.882261	178.227508
	15.219175	43.309660	87.778349	33.305449	164.393457
	15.219175	49.521833	91.728436	39.041599	180.291868
	15.342316	48.247541	91.096422	39.200936	178.544900
	15.366944	49.681120	92.676457	39.678949	182.036525
	15.391572	45.380384	89.200380	38.244911	172.825676
	15.169919	49.362547	93.782482	40.794311	183.939340
	15.514713	47.769682	89.200380	38.404249	175.374311
	15.514713	48.725401	90.938419	40.316299	179.980118
	15.687110	46.176817	89.516387	36.970211	172.663415
	15.637853	45.858244	88.252359	39.519611	173.630214
	15.613225	46.176817	89.990398	37.766899	173.934113
	15.588597	48.247541	91.728436	40.156961	180.132938
	15.958019	47.928968	89.042377	36.651536	173.622881
	15.219175	48.406828	91.412429	38.244911	178.064168
	15.736366	47.291822	89.832394	37.766899	174.891115
	15.416200	48.088255	89.200380	38.085574	175.374209
	16.204300	47.291822	93.150468	37.448224	177.890514
	15.243803	48.247541	90.938419	39.200936	178.386896
	15.859506	48.088255	91.096422	38.404249	177.588926
	15.366944	50.796125	91.728436	39.678949	182.203510
	15.958019	48.088255	89.200380	39.200936	176.489571
	15.391572	47.451109	92.992464	39.041599	179.485172
	15.736366	48.247541	91.412429	40.794311	180.454281
	15.293059	49.521833	92.360450	39.997624	181.879907
	15.810250	50.477552	91.728436	40.634974	182.840962
	15.317688	48.247541	91.412429	38.882261	178.542231
	16.155044	47.769682	90.306405	40.953649	179.029735
	15.613225	48.247541	94.414496	39.360274	182.022311
	15.982647	46.495390	88.568366	39.678949	174.742705
	15.563969	53.981855	95.046509	43.184374	192.212739
	15.810250	47.928968	91.096422	38.722924	177.748314
	15.293059	48.884687	91.886440	40.475636	181.246763
	15.736366	45.380384	89.674391	35.695511	170.750286
	15.416200	49.521833	92.834461	39.360274	181.716567
	15.760994	54.778288	94.414496	40.953649	190.146432
	15.366944	49.840406	92.834461	39.838286	182.513153
	15.687110	46.336103	90.622412	38.085574	175.044089
	15.342316	49.203260	91.886440	39.519611	180.609311
	15.736366	48.884687	94.414496	39.200936	182.500119
	15.490084	52.070417	92.360450	39.997624	184.428491
	15.563969	49.203260	91.728436	39.678949	180.610645
	15.169919	48.884687	92.360450	41.590999	182.836136
	15.637853	48.566114	89.674391	39.838286	178.078791
	15.243803	49.203260	94.414496	42.865699	186.483454
	15.440828	47.610396	91.570433	39.997624	179.178452
	15.366944	50.318266	92.518454	41.909674	184.746393
	15.514713	49.681120	92.360450	39.200936	181.242506
	14.948266	49.521833	91.728436	39.041599	180.291868
	15.169919	50.318266	92.676457	41.112986	184.107709
	15.120662	48.884687	91.254426	38.882261	179.021374
	15.391572	48.247541	91.570433	38.404249	178.222222
	15.317688	52.070417	93.624478	40.634974	186.329869
	15.563969	48.406828	90.938419	38.085574	177.430820
	15.194547	47.451109	89.358384	38.882261	175.691754
	15.563969	47.610396	92.044443	37.288886	176.943725
	15.022150	49.043974	92.044443	39.838286	180.926703
	15.514713	50.158980	91.570433	39.041599	180.771011
	15.096034	48.406828	90.780415	38.882261	178.069504
	15.465456	47.610396	90.780415	38.882261	177.273072
	15.120662	45.380384	87.620345	36.810874	169.811603
	15.293059	52.388990	97.258559	43.662386	193.309935
	14.874381	47.928968	88.884373	37.129549	173.942890
	15.293059	51.592558	94.256492	44.459074	190.308124
	15.169919	48.725401	92.202447	38.722924	179.650771
	15.071406	49.362547	90.622412	42.069011	182.053969
	14.874381	49.043974	93.308471	40.316299	182.668744
	15.022150	49.043974	91.096422	39.838286	179.978682
	14.899009	47.132536	90.306405	37.448224	174.887164
	15.169919	49.362547	91.570433	37.926236	178.859216
	14.701984	45.858244	88.726370	36.492199	171.076812
	14.997522	46.654677	88.726370	38.404249	173.785295
	14.825125	46.813963	91.412429	38.244911	176.471303
	15.046778	47.769682	90.780415	39.041599	177.591696
	14.849753	48.247541	89.200380	36.492199	173.940120
	15.022150	46.495390	89.516387	37.766899	173.778675
	14.603472	46.017530	88.410363	39.041599	173.469492
	14.825125	46.176817	90.306405	37.766899	174.250120
	14.431075	47.451109	90.464408	40.634974	178.550490
	14.997522	46.973249	89.042377	36.970211	172.985837
	14.357190	48.884687	92.202447	41.750336	182.837470
	15.046778	46.336103	88.884373	37.766899	172.987375
	14.529587	47.291822	91.412429	39.041599	177.745850
	14.874381	44.106093	87.304338	36.332861	167.743292
	14.677356	46.495390	89.674391	37.129549	173.299329
	14.923637	45.221098	88.726370	36.492199	170.439666
	14.332562	44.902525	88.568366	35.695511	169.166402
	14.972894	44.743238	86.514321	35.536174	166.793733
	14.480331	47.451109	92.676457	38.882261	179.009827
	14.849753	45.061811	88.252359	36.173524	169.487694
	14.332562	47.451109	90.464408	39.041599	176.957115
	15.071406	47.451109	89.516387	37.607561	174.575057
	14.603472	46.973249	89.674391	38.722924	175.370564
	15.194547	42.831800	85.250293	34.580149	162.662241
	14.554215	41.716795	88.410363	35.695511	165.822669
	15.046778	45.221098	87.462342	37.129549	169.812988
	14.332562	47.132536	89.200380	38.244911	174.577827
	14.825125	46.813963	90.148401	39.200936	176.163300
	14.258678	45.698957	87.778349	38.244911	171.722217
	15.046778	43.946806	90.622412	39.678949	174.248166
	14.037025	46.973249	89.516387	38.244911	174.734548
	14.825125	46.813963	88.094356	38.404249	173.312567
	13.864628	45.858244	88.884373	36.810874	171.553491
	14.677356	43.468946	86.356317	34.420811	164.246075
	14.037025	45.858244	89.042377	37.607561	172.508182
	14.701984	45.539671	87.304338	36.651536	169.495545
	13.913884	46.813963	88.726370	36.810874	172.351206
	14.751240	44.902525	88.884373	36.332861	170.119759
	14.160165	44.583952	86.514321	34.739486	165.837759
	14.825125	45.539671	88.884373	37.129549	171.553592
	14.234050	42.672514	87.778349	36.651536	167.102398
	14.677356	43.468946	87.146335	35.854849	166.470130
	14.209421	45.858244	89.200380	39.360274	174.418898
	14.701984	45.539671	87.462342	35.376836	168.378849
	14.110909	46.973249	89.042377	40.953649	176.969275
	14.603472	44.106093	88.884373	37.129549	170.120014
	14.209421	45.380384	88.252359	39.678949	173.311692
	14.677356	43.946806	87.304338	35.536174	166.787318
	13.987768	46.813963	89.516387	39.519611	175.849961
	14.529587	46.813963	89.832394	38.722924	175.369281
	14.184793	45.221098	88.094356	39.041599	172.357052
	14.923637	46.336103	91.728436	38.404249	176.468788
	13.987768	44.583952	87.620345	35.217499	167.421796
	14.652728	49.681120	90.464408	38.722924	178.868452
	14.381818	45.221098	88.410363	36.651536	170.282997
	14.578844	45.061811	88.884373	36.970211	170.916395
	14.184793	46.973249	89.516387	39.200936	175.690573
	14.701984	47.132536	89.358384	37.448224	173.939143
	14.184793	49.521833	89.990398	38.722924	178.235155
	14.677356	46.176817	89.674391	38.085574	173.936781
	14.086281	45.858244	89.516387	38.722924	174.097555
	14.628100	46.813963	89.042377	39.838286	175.694626
	14.184793	45.858244	91.254426	38.404249	175.516918
	14.603472	48.566114	92.676457	43.343711	184.586283
	14.160165	47.291822	90.622412	39.041599	176.955833
	14.751240	46.495390	88.726370	39.360274	174.582033
	14.209421	47.451109	89.674391	38.882261	176.007760
	14.578844	45.858244	93.150468	36.810874	175.819585
	14.431075	44.265379	87.778349	37.288886	169.332613
	14.775869	46.495390	89.832394	38.085574	174.413358
	14.061653	48.884687	90.306405	37.926236	177.117328
	14.677356	48.566114	90.464408	39.678949	178.709471
	14.381818	47.451109	92.676457	38.563586	178.691152
	14.775869	46.813963	91.096422	38.882261	176.792646
	14.283306	47.928968	90.780415	39.519611	178.228994
	14.554215	48.566114	90.464408	38.882261	177.912784
	14.628100	46.813963	90.780415	38.882261	176.476639
	14.726612	45.858244	89.042377	38.085574	172.986194
	14.455703	47.451109	92.202447	40.634974	180.288529
	14.800497	47.291822	89.516387	39.678949	176.487158
	14.504959	48.725401	90.464408	40.475636	179.665445
	14.825125	48.406828	92.044443	39.838286	180.289557
	14.258678	49.203260	92.518454	43.662386	185.384100
	14.997522	47.610396	90.148401	39.360274	177.119070
	14.726612	46.973249	91.728436	41.112986	179.814672
	14.874381	48.406828	90.148401	38.722924	177.278153
	14.923637	46.973249	90.306405	39.041599	176.321253
	14.899009	46.495390	90.780415	38.563586	175.839391
	14.652728	46.973249	89.516387	37.288886	173.778523
	14.923637	46.654677	91.570433	37.448224	175.673333
	14.628100	47.451109	89.042377	38.404249	174.897734
	14.997522	46.336103	89.674391	36.651536	172.662030
	14.726612	49.362547	91.412429	39.200936	179.975912
	14.849753	47.132536	89.358384	38.244911	174.735831
	14.751240	45.221098	91.412429	38.404249	175.037776
	14.775869	46.973249	91.096422	39.838286	177.907958
	14.825125	47.610396	90.780415	39.360274	177.751084
	14.923637	49.362547	91.096422	41.272324	181.731292
	14.677356	48.247541	91.254426	39.838286	179.340253
	14.652728	48.566114	90.780415	42.069011	181.415541
	15.268431	47.769682	92.676457	39.200936	179.647075
	14.701984	46.495390	89.990398	38.085574	174.571361
	14.972894	47.769682	91.096422	39.200936	178.067040
	14.972894	46.813963	90.148401	37.288886	174.251250
	14.972894	47.610396	89.674391	39.041599	176.326385
	14.899009	49.043974	93.150468	38.722924	180.917365
	15.219175	46.176817	90.938419	37.448224	174.563459
	14.899009	48.088255	90.938419	38.882261	177.908935
	15.096034	48.088255	91.096422	38.882261	178.066938
	15.022150	48.884687	92.676457	40.794311	182.355456
	15.293059	47.451109	89.674391	37.926236	175.051736
	14.652728	45.380384	92.044443	37.766899	175.191726
	15.219175	45.061811	88.884373	38.085574	172.031758
	14.899009	49.203260	92.202447	40.316299	181.722006
	15.071406	49.681120	92.202447	40.634974	182.518540
	15.046778	48.725401	91.412429	40.475636	180.613466
	15.268431	47.132536	91.570433	41.909674	180.612642
	14.775869	46.176817	92.044443	39.678949	177.900209
	15.342316	46.495390	89.358384	39.997624	175.851397
	14.923637	49.362547	91.728436	39.678949	180.769932
	15.194547	48.247541	91.254426	39.678949	179.180916
	14.825125	46.973249	89.516387	39.041599	175.531235
	15.120662	47.291822	93.940485	38.085574	179.317881
	14.775869	48.566114	91.254426	39.678949	179.499488
	15.391572	47.451109	89.200380	36.492199	173.143687
	14.677356	48.884687	90.938419	38.404249	178.227354
	14.874381	47.291822	89.358384	39.678949	176.329155
	14.899009	47.928968	92.360450	39.200936	179.490355
	14.997522	47.291822	90.780415	39.200936	177.273174
	14.825125	47.451109	91.570433	39.678949	178.700490
	14.997522	46.495390	89.990398	38.085574	174.571361
	14.849753	51.114699	92.044443	43.184374	186.343515
	15.120662	49.043974	91.412429	40.794311	181.250714
	14.874381	46.495390	93.308471	41.590999	181.394859
	14.972894	47.132536	90.938419	39.200936	177.271891
	14.431075	49.043974	92.518454	42.706361	184.268789
	14.874381	49.521833	90.622412	39.041599	179.185844
	14.455703	47.610396	89.042377	40.953649	177.606421
	15.391572	47.291822	92.518454	39.997624	179.807899
	14.726612	47.291822	91.570433	39.200936	178.063191
	14.800497	46.176817	89.200380	37.766899	173.144095
	14.258678	48.247541	89.674391	37.129549	175.051480
	14.751240	47.451109	90.148401	38.722924	176.322434
	14.578844	46.176817	89.674391	38.722924	174.574131
	14.849753	45.858244	92.360450	36.810874	175.029568
	14.628100	47.610396	90.148401	39.519611	177.278408
	14.603472	50.318266	90.622412	38.244911	179.185589
	14.578844	47.610396	90.780415	39.041599	177.432409
	14.701984	45.380384	88.884373	37.607561	171.872319
	14.480331	47.769682	92.676457	40.316299	180.762438
	14.825125	47.451109	91.096422	40.953649	179.501180
	14.554215	47.451109	90.464408	39.041599	176.957115
	14.677356	47.451109	91.412429	41.750336	180.613874
	14.603472	47.928968	90.306405	39.200936	177.436309
	14.726612	46.654677	89.516387	40.156961	176.328024
	14.775869	46.495390	91.728436	39.200936	177.424762
	14.603472	45.221098	90.464408	38.244911	173.930417
	14.726612	46.654677	90.306405	38.085574	175.046655
	14.775869	48.088255	89.832394	37.766899	175.687547
	14.603472	47.928968	89.832394	38.722924	176.484286
	14.775869	46.973249	92.676457	40.156961	179.806667
	14.504959	46.017530	89.200380	37.607561	172.825472
	14.504959	43.628233	86.988331	35.536174	166.152738
	14.431075	47.769682	89.990398	37.448224	175.208303
	14.504959	46.973249	89.674391	38.722924	175.370564
	14.652728	46.176817	88.884373	39.041599	174.102788
	14.529587	43.628233	90.148401	36.651536	170.428170
	14.603472	47.769682	90.464408	39.678949	177.913039
	14.677356	47.769682	89.832394	38.722924	176.325000
	14.406447	47.769682	91.096422	41.431661	180.297765
	14.775869	45.221098	87.936352	38.404249	171.561699
	14.578844	45.858244	91.254426	40.634974	177.747643
	14.874381	44.265379	88.094356	36.810874	169.170608
	14.504959	48.088255	90.306405	40.794311	179.188971
	14.751240	47.451109	91.096422	39.519611	178.067142
	14.775869	44.743238	88.568366	38.722924	172.034528
	14.726612	46.973249	89.042377	38.722924	174.738550
	14.726612	47.132536	93.466475	38.244911	178.843921
	14.726612	47.291822	89.832394	38.404249	175.528465
	14.455703	47.928968	91.096422	39.678949	178.704339
	14.849753	47.132536	90.306405	38.563586	176.002526
	14.603472	47.610396	89.516387	39.678949	176.805731
	14.874381	45.380384	91.096422	37.766899	174.243705
	14.504959	46.176817	89.832394	39.200936	175.210147
	14.899009	46.336103	89.990398	40.156961	176.483462
	14.628100	52.229704	92.992464	41.909674	187.131842
	14.825125	46.654677	89.516387	40.794311	176.965374
	14.775869	44.106093	89.200380	37.607561	170.914034
	14.775869	45.380384	89.358384	40.156961	174.895729
	14.751240	45.858244	89.832394	38.722924	174.413562
	15.268431	44.743238	88.884373	36.810874	170.438485
	14.603472	44.583952	87.936352	36.651536	169.171840
	14.874381	45.858244	89.200380	37.129549	172.188173
	14.504959	46.176817	90.780415	37.926236	174.883468
	14.825125	42.831800	86.356317	34.580149	163.768266
	14.603472	44.265379	86.830328	35.058161	166.153868
	14.825125	46.336103	89.990398	37.766899	174.093400
	14.701984	45.221098	88.568366	36.970211	170.759675
	14.849753	44.902525	86.988331	37.129549	169.020404
	14.381818	46.973249	92.202447	39.041599	178.217295
	14.997522	45.539671	89.200380	38.244911	172.984962
	14.431075	45.858244	89.516387	37.607561	172.982192
	14.899009	46.336103	89.200380	38.244911	173.781395
	14.135537	45.061811	87.304338	39.041599	171.407748
	14.652728	46.176817	91.728436	39.519611	177.424864
	14.406447	42.831800	87.778349	38.404249	169.014398
	14.972894	44.424665	87.778349	36.651536	168.854550
	14.332562	48.406828	90.464408	41.431661	180.302897
	14.751240	46.813963	89.990398	38.722924	175.527284
	14.258678	44.743238	87.778349	39.678949	172.200536
	14.874381	45.221098	91.570433	39.041599	175.833129
	14.061653	47.291822	90.464408	38.563586	176.319817
	14.825125	47.610396	89.674391	37.766899	175.051684
	14.061653	47.291822	90.148401	38.882261	176.322485
	14.701984	46.017530	89.200380	37.926236	173.144147
	13.987768	45.539671	90.148401	37.766899	173.454971
	14.751240	46.813963	90.938419	39.041599	176.793980
	14.012396	47.451109	90.464408	39.200936	177.116453
	14.701984	46.176817	90.148401	39.200936	175.526154
	14.184793	46.973249	89.674391	39.360274	176.007914
	14.578844	49.043974	94.730503	42.387686	186.162163
	14.209421	46.176817	89.200380	39.519611	174.896808
	14.480331	44.265379	88.410363	38.882261	171.558003
	14.184793	49.521833	93.308471	41.750336	184.580640
	14.899009	50.477552	92.360450	43.821724	186.659726
	14.578844	48.247541	90.306405	40.794311	179.348257
	14.480331	46.495390	92.992464	41.750336	181.238190
	14.381818	47.291822	90.464408	39.997624	177.753854
	14.726612	46.336103	89.674391	39.678949	175.689442
	14.160165	46.973249	90.148401	38.404249	175.525899
	14.677356	47.610396	90.464408	37.129549	175.204352
	14.234050	46.495390	90.306405	39.678949	176.480743
	14.431075	46.176817	90.306405	38.404249	174.887470
	14.357190	47.451109	90.622412	39.200936	177.274457
	14.455703	49.043974	91.412429	39.360274	179.816676
	14.775869	46.973249	89.832394	37.926236	174.731880
	14.578844	48.247541	91.096422	41.909674	181.253637
	14.652728	46.813963	91.412429	38.882261	177.108653
	14.578844	48.566114	91.412429	41.431661	181.410205
	14.726612	49.999693	90.780415	40.156961	180.937069
	14.677356	48.088255	91.728436	40.316299	180.132990
	14.603472	45.221098	88.884373	40.156961	174.262432
	14.578844	49.681120	93.940485	42.228349	185.849953
	14.825125	45.858244	89.358384	41.431661	176.648289
	14.480331	45.221098	90.148401	38.404249	173.773748
	14.825125	46.973249	90.464408	38.244911	175.682569
	14.480331	48.247541	90.148401	39.519611	177.915553
	14.874381	47.451109	90.938419	38.722924	177.112451
	14.652728	45.061811	90.148401	37.288886	172.499099
	14.923637	48.406828	92.834461	41.431661	182.672950
	14.603472	47.291822	90.938419	38.882261	177.112502
	15.293059	48.247541	90.148401	39.519611	177.915553
	14.504959	45.858244	88.094356	38.244911	172.197511
	14.775869	46.336103	92.834461	39.519611	178.690175
	14.652728	49.681120	93.782482	42.547024	186.010625
	14.997522	46.176817	89.832394	38.722924	174.732135
	14.504959	48.088255	91.096422	40.475636	179.660313
	14.899009	48.088255	90.938419	39.997624	179.024297
	14.455703	46.973249	90.148401	40.953649	178.075299
	14.751240	47.132536	92.360450	40.316299	179.809285
	14.209421	47.291822	90.938419	42.069011	180.299252
	14.849753	48.247541	90.148401	39.041599	177.437541
	14.135537	47.132536	90.780415	41.112986	179.025937
	15.096034	44.583952	87.936352	37.129549	169.649853
	14.234050	45.858244	90.938419	38.404249	175.200911
	14.701984	46.973249	90.780415	39.360274	177.113938
	14.012396	49.043974	90.938419	38.563586	178.545978
	14.504959	48.406828	92.044443	40.156961	180.608232
	13.938512	46.495390	90.780415	38.563586	175.839391
	14.849753	45.539671	87.778349	36.970211	170.288230
	13.889256	46.336103	91.570433	39.519611	177.426147
	14.775869	47.291822	90.938419	39.200936	177.431177
	14.037025	45.539671	89.990398	38.404249	173.934317
	14.751240	49.362547	91.570433	40.794311	181.727291
	14.012396	46.813963	89.674391	39.519611	176.007965
	14.578844	47.610396	94.730503	43.503049	185.843947
	14.037025	47.132536	90.306405	40.156961	177.595901
	15.022150	45.380384	89.042377	39.838286	174.261047
	14.037025	48.725401	90.148401	38.722924	177.596726
	14.726612	47.928968	89.674391	40.316299	177.919658
	14.283306	47.132536	92.202447	39.997624	179.332606
	14.677356	48.247541	91.570433	39.838286	179.656260
	14.431075	45.698957	89.674391	38.244911	173.618259
	14.603472	47.451109	90.780415	38.085574	176.317098
	14.603472	48.088255	91.570433	39.997624	179.656311
	14.357190	46.495390	89.832394	39.519611	175.847395
	14.603472	45.221098	91.886440	36.970211	174.077749
	14.554215	48.406828	91.412429	41.112986	180.932243
	14.874381	49.362547	91.886440	39.360274	180.609260
	14.578844	47.610396	91.886440	40.634974	180.131809
	14.800497	46.336103	90.622412	39.200936	176.159451
	15.022150	48.247541	91.728436	40.794311	180.770288
	14.972894	46.336103	91.570433	40.156961	178.063497
	14.455703	45.380384	90.306405	39.519611	175.206400
	14.899009	46.336103	90.148401	41.272324	177.756828
	14.258678	49.203260	92.360450	41.272324	182.836034
	14.652728	46.336103	89.674391	40.316299	176.326793
	14.406447	48.088255	93.940485	41.909674	183.938414
	14.751240	44.265379	88.726370	40.316299	173.308047
	14.234050	46.973249	90.464408	39.200936	176.638594
	14.726612	47.610396	90.780415	38.244911	176.635722
	14.086281	46.813963	89.358384	39.041599	175.213945
	14.603472	46.176817	91.728436	37.926236	175.831489
	13.864628	46.813963	91.254426	39.041599	177.109987
	14.751240	48.566114	91.728436	40.634974	180.929524
	14.012396	48.406828	90.622412	38.563586	177.592826
	14.652728	46.813963	90.306405	39.519611	176.639979
	13.913884	46.654677	89.042377	39.678949	175.376002
	14.431075	48.884687	95.678523	42.069011	186.632222
	14.307934	45.858244	90.780415	41.431661	178.070320
	14.578844	46.813963	91.096422	40.316299	178.226684
	14.406447	46.336103	90.306405	41.431661	178.074169
	14.283306	47.928968	88.884373	39.360274	176.173615
	14.307934	46.495390	91.570433	41.112986	179.178809
	14.357190	44.902525	88.884373	38.244911	172.031809
	13.987768	46.176817	90.780415	41.750336	178.707568
	14.726612	45.380384	89.358384	37.926236	172.665004
	14.554215	49.681120	91.570433	40.156961	181.408513
	14.381818	48.725401	91.254426	41.272324	181.252150
	14.726612	45.221098	93.150468	37.926236	176.297802
	14.381818	46.654677	89.674391	39.360274	175.689341
	14.455703	45.221098	89.200380	36.651536	171.073014
	14.357190	48.725401	91.096422	38.244911	178.066734
	14.751240	45.858244	88.726370	38.404249	172.988862
	14.480331	45.061811	91.886440	38.563586	175.511837
	14.455703	45.061811	90.938419	38.722924	174.723154
	14.307934	46.336103	89.990398	38.085574	174.412075
	14.701984	48.566114	90.622412	39.678949	178.867475
	14.332562	46.973249	90.938419	39.997624	177.909292
	14.972894	44.743238	89.200380	39.200936	173.144555
	14.258678	46.973249	93.150468	41.112986	181.236703
	14.775869	46.813963	90.464408	39.519611	176.797982
	14.332562	46.336103	90.148401	40.953649	177.438153
	15.366944	47.610396	90.938419	39.838286	178.387100
	14.455703	46.654677	88.094356	39.360274	174.109306
	14.652728	46.654677	91.886440	39.200936	177.742052
	14.406447	44.743238	88.884373	36.651536	170.279148
	14.578844	44.583952	90.148401	38.244911	172.977264
	13.938512	46.176817	90.464408	39.360274	176.001498
	14.726612	48.088255	89.990398	38.722924	176.801576
	13.864628	46.813963	89.042377	39.678949	175.535288
	14.701984	46.017530	90.938419	39.041599	175.997547
	13.839999	45.858244	90.306405	39.838286	176.002935
	14.972894	46.973249	90.780415	40.634974	178.388638
	13.864628	47.928968	90.464408	39.997624	178.391000
	14.554215	47.451109	89.516387	40.634974	177.602470
	14.110909	45.858244	92.202447	39.838286	177.898977
	14.504959	45.221098	90.780415	41.112986	177.114499
	13.938512	47.928968	91.886440	41.272324	181.087731
	14.578844	48.725401	91.096422	41.590999	181.412822
	13.741487	47.769682	92.202447	41.272324	181.244452
	14.554215	42.672514	86.040310	38.244911	166.957735
	14.258678	44.902525	92.518454	38.244911	175.665889
	14.381818	45.061811	88.252359	39.200936	172.515107
	14.012396	47.769682	90.306405	39.360274	177.436360
	14.332562	46.495390	90.464408	38.404249	175.364047
	14.086281	45.698957	88.726370	38.244911	172.670238
