LabVIEW Measurement	
Writer_Version	2
Reader_Version	2
Separator	Tab
Decimal_Separator	.
Multi_Headings	No
X_Columns	No
Time_Pref	Absolute
Operator	lvuser
Date	2021/05/25
Time	14:15:15.847773837
***End_of_Header***	
	
Channels	5					
Samples	2000	2000	2000	2000	2000	
Date	2021/05/25	2021/05/25	2021/05/25	2021/05/25	2021/05/25	
Time	14:15:15.8477738870585883856	14:15:15.847773837	14:15:15.847773837	14:15:15.847773837	14:15:15.847773837	
Y_Unit_Label	Volts	Volts	Volts	Volts	Volts	
X_Dimension	Time	Time	Time	Time	Time	
X0	0.0000000000000000E+0	0.0000000000000000E+0	0.0000000000000000E+0	0.0000000000000000E+0	0.0000000000000000E+0	
Delta_X	0.001000	0.001000	0.001000	0.001000	0.001000	
***End_of_Header***						
X_Value	cisnienieKomoraGorna	sila1	sila2	sila3	sila1 1	Comment
	-1.478699	-1.927706	43.379365	4.784036	46.235695	Masa: 0.00 [kg]\09Pozycja Y 5.00 [m]\09Pozycja Z 2.71 [m]\0A
	1.821471	-4.794863	41.167316	2.712649	39.085102
	2.363290	-5.113436	40.693306	2.393974	37.973843
	1.722958	-5.591295	40.693306	3.828011	38.930021
	1.919983	-3.998431	42.273341	2.234636	40.509546
	1.649074	-4.635576	41.799330	4.624699	41.788452
	2.018496	-2.086993	41.167316	4.624699	43.705022
	1.649074	-3.679858	43.221362	4.943374	44.484878
	2.338662	-4.476290	41.167316	2.393974	39.085000
	1.772215	-4.954149	40.061292	2.393974	37.501116
	2.314034	-3.201998	40.219295	2.553311	39.570608
	1.796843	-4.157717	43.063358	3.509336	42.414977
	2.018496	-5.113436	39.745285	2.553311	37.185160
	1.279652	-5.591295	41.009313	3.031324	38.449341
	2.166265	-3.998431	40.851309	2.553311	39.406190
	1.378165	-5.113436	41.483323	2.393974	38.763861
	2.560315	-7.024874	38.797264	-0.474102	31.298288
	1.575190	-7.662020	38.639260	1.597286	32.574526
	1.969240	-4.317003	38.955267	4.146686	38.784950
	1.993868	-5.591295	42.589348	3.349999	40.348051
	1.993868	-2.883425	43.063358	4.306024	44.485957
	1.452049	-4.954149	41.325320	2.234636	38.605806
	2.289405	-2.405565	41.325320	1.597286	40.517040
	1.452049	-5.272723	41.641327	2.393974	38.762578
	1.969240	-6.547015	39.745285	1.119274	34.317543
	1.452049	-3.839144	40.851309	3.828011	40.840176
	1.969240	-7.821306	35.005180	-1.430127	25.753747
	1.402793	-7.502734	40.693306	0.800599	33.991171
	1.698330	-6.547015	39.745285	1.119274	34.317543
	1.747587	-4.635576	41.483323	2.075299	38.923045
	1.279652	-1.609133	44.011379	4.306024	46.708270
	1.575190	-3.520571	42.747351	6.058736	45.285516
	1.525933	-3.679858	41.957334	5.262049	43.539525
	1.550562	-5.272723	41.009313	2.871986	38.608576
	1.624446	-3.520571	39.903288	3.190661	39.573378
	1.969240	-6.706301	43.063358	0.322586	36.679643
	1.501305	-4.476290	41.641327	2.075299	39.240335
	1.698330	-4.954149	41.009313	2.075299	38.130462
	1.452049	-0.812701	41.957334	3.190661	44.335294
	1.747587	-5.750582	41.483323	2.234636	37.967377
	1.402793	-4.157717	41.799330	3.190661	40.832274
	1.649074	-5.432009	39.429278	1.915961	35.913230
	1.279652	-3.679858	41.009313	3.031324	40.360779
	1.698330	-7.184160	40.851309	1.278611	34.945760
	1.131883	-5.432009	40.377299	1.756624	36.701913
	1.747587	-4.157717	41.325320	1.278611	38.446214
	1.082627	-6.387728	41.641327	2.234636	37.488235
	1.846099	-2.564852	41.799330	3.349999	42.584477
	1.181140	-5.909868	39.587281	4.306024	37.983436
	2.067752	-3.839144	42.905355	4.784036	43.850247
	1.698330	-4.476290	41.799330	3.987349	41.310389
	2.781968	-3.201998	41.009313	3.031324	40.838638
	1.870727	-5.113436	41.799330	2.075299	38.761193
	2.511059	-3.998431	41.325320	1.437949	38.764838
	1.747587	-2.405565	42.747351	3.668674	44.010459
	2.264777	-4.317003	39.113271	1.756624	36.552891
	1.673702	-4.794863	42.273341	2.393974	39.872451
	2.437174	-5.432009	41.325320	1.597286	37.490597
	2.043124	-5.113436	40.061292	1.756624	36.704479
	2.363290	-5.272723	40.377299	1.915961	37.020537
	1.673702	-2.246279	44.011379	4.784036	46.549136
	1.772215	-4.794863	42.115337	2.393974	39.714448
	2.092380	-4.476290	41.009313	1.278611	37.811634
	2.240149	-6.387728	39.903288	2.393974	35.909534
	1.895355	-4.476290	41.957334	3.668674	41.149717
	2.018496	-3.998431	41.009313	5.740061	42.750943
	1.624446	-2.883425	42.431344	5.899399	45.447318
	1.624446	-3.679858	41.483323	3.349999	41.153464
	1.550562	-3.679858	41.641327	2.075299	40.036768
	1.698330	-5.432009	41.325320	1.756624	37.649934
	1.772215	-4.635576	40.219295	2.712649	38.296367
	1.796843	-4.476290	43.063358	3.031324	41.618392
	1.969240	-3.998431	38.639260	0.959936	35.600766
	1.698330	-5.750582	40.693306	2.075299	37.018022
	1.624446	-4.954149	40.693306	1.915961	37.655117
	1.328908	-3.201998	43.063358	6.536749	46.398109
	1.772215	-7.184160	38.639260	0.641261	32.096361
	1.402793	-3.520571	40.219295	3.349999	40.048723
	1.599818	-4.476290	42.747351	3.190661	41.461722
	1.230396	-5.591295	39.429278	1.278611	35.116593
	1.575190	-6.069155	39.903288	0.481924	34.316057
	1.205768	-1.768420	41.167316	1.597286	40.996183
	1.796843	-5.432009	41.799330	3.668674	40.035995
	1.230396	-3.679858	40.377299	5.262049	41.959490
	1.870727	-4.794863	40.219295	4.624699	40.049131
	1.008743	-6.547015	40.693306	2.393974	36.540265
	1.993868	-6.865588	39.903288	2.075299	35.112999
	1.427421	-5.432009	40.693306	1.119274	36.380570
	2.018496	-5.432009	40.851309	1.278611	36.697911
	1.747587	-6.547015	41.167316	2.234636	36.854938
	2.092380	-4.794863	41.167316	3.031324	39.403777
	1.599818	-5.272723	39.271274	2.553311	36.551863
	2.166265	-3.520571	43.853376	4.306024	44.638828
	1.525933	-5.591295	41.167316	2.712649	38.288669
	1.993868	-2.564852	42.115337	4.306024	43.856509
	1.673702	-7.821306	39.113271	0.481924	31.773888
	1.969240	-2.883425	43.221362	3.828011	44.165948
	2.043124	-1.290560	44.801397	5.580724	49.091560
	2.092380	-2.405565	39.745285	3.031324	40.371043
	1.821471	-5.432009	42.115337	5.899399	42.582727
	1.919983	-6.547015	42.115337	3.349999	38.918321
	2.092380	-6.069155	39.429278	1.597286	34.957408
	1.821471	-3.201998	41.167316	3.668674	41.633992
	1.624446	-6.228441	41.325320	1.915961	37.012839
	1.525933	-4.317003	42.115337	3.031324	40.829657
	1.673702	-4.794863	40.693306	2.234636	38.133079
	1.181140	-5.432009	43.379365	3.349999	41.297355
	1.944612	-4.317003	41.167316	1.915961	38.766274
	1.328908	-5.909868	41.483323	2.871986	38.445441
	1.944612	-4.476290	41.641327	3.509336	40.674373
	1.255024	-4.794863	41.483323	3.190661	39.879121
	2.067752	-2.883425	41.483323	3.987349	42.587247
	1.230396	-6.228441	39.587281	3.031324	36.390163
	1.772215	-4.794863	42.747351	3.190661	41.143149
	1.255024	-4.794863	40.219295	3.190661	38.615093
	1.870727	-7.980593	39.587281	0.003911	31.610599
	1.378165	-5.272723	41.483323	5.262049	41.472649
	2.092380	-4.954149	41.641327	4.784036	41.471213
	1.673702	-4.157717	41.957334	5.580724	43.380340
	2.092380	-5.909868	41.009313	5.740061	40.839505
	1.772215	-4.794863	43.221362	3.349999	41.776497
	2.190893	-5.750582	43.379365	1.119274	38.748057
	1.870727	-4.476290	42.115337	2.871986	40.511033
	2.215521	-6.387728	41.483323	2.075299	37.170894
	1.649074	-2.883425	42.115337	3.509336	42.741248
	1.969240	-5.909868	41.325320	2.553311	37.968762
	1.821471	-3.201998	42.747351	4.943374	44.488727
	1.747587	-4.476290	42.273341	3.668674	41.465724
	1.747587	-3.839144	44.485390	2.553311	43.199557
	1.846099	-4.476290	42.273341	4.306024	42.103074
	1.846099	-3.998431	42.431344	3.031324	41.464237
	1.796843	-4.635576	42.431344	3.031324	40.827091
	1.919983	-5.113436	42.431344	1.756624	39.074532
	1.624446	-5.750582	40.693306	2.075299	37.018022
	1.821471	-3.520571	44.011379	5.580724	46.071532
	1.624446	-5.432009	44.169383	4.784036	43.521410
	1.895355	-5.113436	41.641327	5.262049	41.789939
	1.427421	-2.564852	42.273341	4.306024	44.014512
	1.747587	-4.794863	42.431344	3.828011	41.464492
	1.304280	-3.520571	42.905355	3.349999	42.734782
	1.722958	-4.794863	41.167316	1.915961	38.288414
	1.525933	-2.564852	43.379365	2.553311	43.367824
	1.895355	-4.157717	44.327386	3.987349	44.157018
	1.525933	-4.794863	40.851309	2.871986	38.928432
	1.846099	-4.954149	41.799330	2.871986	39.717167
	1.427421	-4.157717	42.273341	3.987349	42.102972
	2.067752	-4.157717	41.957334	3.509336	41.308953
	1.353536	-5.432009	40.377299	2.393974	37.339263
	2.117009	-3.520571	42.115337	3.987349	42.582115
	1.452049	-5.432009	46.065425	3.190661	43.824077
	2.240149	-2.724139	42.589348	3.668674	43.533883
	2.363290	-3.839144	42.905355	5.580724	44.646934
	4.210400	-3.520571	42.905355	6.536749	45.921532
	4.555194	-3.361285	44.327386	7.492774	48.458875
	6.500816	-0.016268	44.801397	7.333436	52.118565
	7.978504	-0.971987	45.275407	7.970786	52.274206
	10.539830	1.098737	48.909488	8.289461	58.297686
	11.746608	2.213743	49.699505	10.042174	61.955422
	13.963140	7.470198	51.753551	12.272899	71.496647
	13.544462	5.240187	53.965600	14.503624	73.709410
	15.243803	6.195905	55.071624	15.300311	76.567841
	16.204300	10.178068	59.495722	19.761761	89.435551
	17.386451	13.204512	60.443743	22.151823	95.800078
	18.076039	16.071669	68.027911	26.294599	110.394178
	20.612736	18.301680	70.239960	28.525324	117.066963
	23.223319	22.124555	74.190048	32.668099	128.982702
	27.262333	22.920988	77.034110	33.942799	133.897897
	30.907297	30.566740	83.038244	39.200936	152.805920
	35.389619	31.522459	86.672324	45.574436	163.769219
	39.059211	36.460340	90.780415	49.557874	176.798629
	42.482523	40.123930	99.944618	54.019324	194.087872
	44.945337	46.017530	102.788681	58.640111	207.446323
	46.250629	47.769682	108.160800	62.942224	218.872706
	50.314272	54.937574	115.586965	67.244336	237.768875
	54.254775	59.556883	120.801080	70.431086	250.789049
	58.983379	64.335478	125.225178	73.139824	262.700480
	63.736612	68.158354	129.333269	78.716636	276.208259
	68.883895	74.370528	138.023462	83.178086	295.572075
	72.504233	79.786269	143.711588	87.798873	311.296730
	76.247713	85.679869	148.293689	91.782311	325.755869
	78.562759	94.440626	157.141885	98.315149	349.897660
	78.809041	99.059935	161.407980	101.023886	361.491801
	81.345741	106.705687	168.676141	106.441361	381.823189
	83.586903	114.032866	175.312288	111.221486	400.566640
	84.769054	123.908629	181.474424	116.320286	421.703339
	87.379639	132.828673	193.956701	125.880536	452.665909
	87.182614	141.111571	198.854809	133.688074	473.654454
	90.950722	151.783767	210.231061	142.929649	504.944476
	92.994860	164.208113	220.659292	149.781161	534.648567
	95.999495	171.216720	230.455509	157.110686	558.782915
	97.403301	181.411056	239.461709	164.599549	585.472313
	99.275041	192.720397	250.995964	175.912511	619.628872
	98.782478	205.781890	265.374283	186.588124	657.744296
	98.733222	216.294799	276.750535	198.697774	691.743107
	97.033878	223.940551	285.756734	205.389949	715.087234
	95.433048	231.267730	294.762934	212.560136	738.590800
	92.403784	240.984206	306.297189	222.279724	769.561119
	89.842455	247.992812	312.933336	228.175211	789.101360
	88.487906	254.523559	321.781532	235.504736	811.809827
	86.788563	257.390716	327.785665	237.576124	822.752504
	84.030210	261.372879	331.735753	241.878236	834.986867
	82.059957	264.877182	334.579816	242.515586	841.972583
	80.040448	262.487884	336.475858	242.834261	841.798002
	77.922427	261.850738	336.633861	243.949624	842.434223
	76.075316	261.850738	336.475858	245.064986	843.391582
	72.996796	261.213592	334.105805	242.993599	838.312996
	69.844393	254.045700	332.841777	238.691486	825.578963
	65.608351	252.134262	327.785665	233.752024	813.671950
	61.667847	247.037093	322.097539	228.493886	797.628519
	57.333294	244.647796	319.253476	226.263161	790.164433
	54.180891	237.798476	311.827312	219.730324	769.356112
	53.023368	231.427017	303.611130	213.994174	749.032319
	49.452287	225.692702	296.974983	208.576699	731.244384
	45.019222	220.754821	290.338836	203.955911	715.049568
	41.940704	212.790496	285.282724	196.307711	694.380931
	38.024830	208.171188	275.802514	192.005599	675.979300
	35.291106	202.277587	268.376349	185.950774	656.604710
	31.473745	194.153976	260.792181	179.099261	634.045418
	29.404981	188.578948	251.469975	171.769736	611.818659
	25.513735	182.207488	244.833828	169.379674	596.420989
	23.346459	174.083877	233.457576	162.368824	569.910276
	19.726124	166.915984	227.927453	156.473336	551.316773
	17.731245	162.296676	220.343285	148.984474	531.624434
	15.440828	152.898772	212.917121	143.088986	508.904879
	15.465456	147.323745	204.858942	135.122111	487.304798
	12.682477	139.518706	196.484757	128.907949	464.911411
	11.426442	132.510100	188.742585	123.649811	444.902496
	9.037514	124.227202	179.262375	115.842274	419.331851
	7.830735	117.218596	175.628295	110.106123	402.953014
	5.909741	111.006423	164.568050	104.369974	379.944446
	4.924616	104.475676	158.563917	99.430511	362.470104
	3.151390	98.263503	149.873724	92.419661	340.556888
	2.781968	89.821318	142.763567	86.364836	318.949721
	1.575190	85.202010	136.127420	81.744049	303.073478
	1.378165	77.874831	128.543252	75.689223	282.107306
	1.181140	72.777663	123.803146	67.084999	263.665808
	1.131883	64.972624	116.060975	62.782886	243.816485
	0.860974	60.990461	111.162867	61.348849	233.502176
	1.501305	56.371153	106.422762	58.002761	220.796675
	1.575190	52.548277	101.366650	52.266611	206.181538
	1.698330	45.061811	95.678523	46.371124	187.111458
	1.821471	43.787519	91.096422	42.069011	176.952952
	2.018496	39.805357	87.304338	38.722924	165.832619
	1.772215	34.708189	85.250293	34.102136	154.060618
	1.476677	30.407453	79.088156	30.278036	139.773645
	1.599818	32.000318	80.352184	30.756049	143.108551
	1.353536	27.221723	76.086090	26.453936	129.761749
	1.550562	24.195280	74.664058	24.701224	123.560562
	1.255024	23.558134	70.713971	22.311161	116.583266
	1.698330	21.487409	69.607946	21.036461	112.131816
	1.378165	18.301680	68.501922	17.849711	104.653312
	1.747587	18.620252	66.921886	16.734348	102.276487
	1.427421	17.505247	63.287806	12.591574	93.384626
	1.525933	10.815214	61.233761	9.882836	81.931810
	1.107255	13.363798	62.655792	14.662961	90.682551
	1.525933	11.293074	58.547701	12.910248	82.751023
	1.033371	12.089506	60.443743	14.184949	86.718198
	1.624446	8.585203	58.863708	11.954224	79.403135
	0.984115	8.266630	56.493656	10.042174	74.802459
	1.575190	7.629484	56.019645	8.608136	72.257265
	0.959486	6.036619	55.229628	8.289461	69.555708
	1.722958	7.629484	53.017579	7.652111	68.299174
	1.402793	3.647321	50.331519	7.333436	61.312277
	1.624446	4.921613	52.859575	8.608136	66.389325
	0.984115	2.850889	51.121537	7.811449	61.783874
	1.649074	2.532316	48.119470	6.696086	57.347872
	0.762461	1.735883	49.857509	9.086149	60.679541
	2.338662	-0.016268	47.171449	6.536749	53.691930
	0.762461	0.143018	47.171449	7.333436	54.647904
	1.501305	0.461591	44.959400	7.174099	52.595090
	0.984115	-1.768420	43.221362	5.102711	46.555653
	1.969240	-2.564852	44.959400	6.218074	48.612622
	1.279652	-3.201998	41.641327	7.174099	45.613427
	1.895355	-0.016268	44.959400	10.360849	55.303981
	1.279652	-1.927706	43.853376	9.564161	51.489831
	1.649074	-1.290560	44.485390	8.608136	51.802966
	1.230396	-4.954149	39.587281	4.146686	38.779818
	1.895355	-5.909868	39.271274	4.306024	37.667429
	1.525933	-0.016268	44.643393	7.970786	52.597911
	1.870727	-5.591295	39.113271	5.102711	38.624686
	1.525933	-4.157717	40.693306	6.218074	42.753662
	1.796843	-4.157717	40.851309	6.536749	43.230341
	1.452049	-2.405565	41.009313	6.696086	45.299833
	1.919983	-7.821306	37.533236	4.306024	34.017953
	1.378165	-2.405565	40.061292	7.652111	45.307837
	1.575190	-4.476290	41.009313	5.102711	41.635734
	1.452049	-5.750582	38.797264	5.899399	38.946080
	1.624446	-4.317003	40.061292	5.262049	41.006337
	1.575190	-6.387728	38.639260	3.349999	35.601531
	1.698330	-5.272723	39.587281	4.624699	38.939257
	1.575190	-5.272723	37.691239	7.174099	39.592615
	1.181140	-2.564852	38.955267	8.767474	45.157889
	1.452049	-3.839144	42.905355	8.289461	47.355672
	1.575190	-5.113436	38.323253	6.696086	39.905903
	1.846099	-3.042711	40.693306	6.855424	44.506018
	1.131883	-3.042711	38.955267	3.828011	39.740567
	1.575190	-7.024874	38.481257	2.871986	34.328369
	1.107255	-4.635576	39.113271	4.784036	39.261730
	1.624446	-8.299166	35.163183	1.915961	28.779978
	1.033371	-4.635576	40.377299	5.102711	40.844433
	1.649074	-7.502734	38.481257	3.828011	34.806534
	1.501305	-5.113436	38.797264	4.784036	38.467864
	1.821471	-7.024874	37.533236	2.553311	33.061673
	1.525933	-8.936312	37.217229	2.393974	30.674890
	1.575190	-5.591295	39.271274	3.509336	37.189315
	1.599818	-4.954149	38.955267	4.306024	38.307141
	1.649074	-6.865588	38.323253	3.190661	34.648327
	1.033371	-3.998431	43.379365	8.767474	48.148408
	1.378165	-4.157717	38.797264	7.014761	41.654308
	1.008743	-4.954149	40.377299	5.740061	41.163210
	1.525933	-6.228441	38.165250	3.190661	35.127469
	1.008743	-4.635576	39.903288	4.306024	39.573735
	2.117009	-6.387728	34.373166	-0.314764	27.670674
	1.452049	-5.750582	40.693306	3.509336	38.452060
	2.018496	-5.909868	38.955267	2.871986	35.917385
	1.057999	-5.272723	38.639260	4.465361	37.831899
	1.747587	-5.591295	39.587281	4.784036	38.780022
	1.279652	-4.954149	39.903288	4.784036	39.733175
	1.944612	-5.272723	39.587281	4.465361	38.779920
	1.181140	-6.387728	36.901222	3.031324	33.544817
	1.747587	-8.139880	38.955267	1.915961	32.731349
	1.402793	-3.998431	37.059225	1.915961	34.976756
	1.969240	-5.909868	39.429278	3.509336	37.028745
	1.255024	-4.954149	40.219295	2.393974	37.659119
	1.993868	-5.432009	40.377299	2.712649	37.657938
	1.501305	-4.157717	39.587281	3.668674	39.098238
	1.969240	-5.750582	40.219295	5.899399	40.368112
	1.624446	-4.476290	42.589348	5.899399	44.012456
	1.944612	-5.750582	42.589348	2.075299	38.914064
	1.279652	-4.794863	41.957334	2.234636	39.397107
	1.846099	-5.591295	41.799330	1.915961	38.123996
	1.747587	-4.157717	42.431344	2.712649	40.986276
	1.649074	-2.883425	43.695372	3.668674	44.480621
	1.624446	-3.679858	42.905355	3.987349	43.212846
	1.846099	-4.157717	42.589348	2.553311	40.984942
	1.525933	-3.520571	46.855442	3.349999	46.684870
	1.969240	-2.724139	44.327386	3.987349	45.590596
	1.599818	-3.839144	44.169383	3.031324	43.361562
	1.747587	-1.927706	43.379365	1.756624	43.208283
	1.427421	-5.750582	42.747351	0.481924	37.478693
	1.452049	-3.520571	43.695372	2.553311	42.728112
	1.525933	-3.201998	42.431344	4.624699	43.854045
	0.836346	-0.653414	48.119470	5.580724	53.046780
	1.427421	-3.520571	44.959400	4.943374	46.382203
	1.131883	-3.679858	44.169383	3.828011	44.317536
	1.427421	-3.042711	44.801397	1.756624	43.515309
	1.279652	-5.272723	43.379365	1.597286	39.703929
	1.378165	-3.520571	42.747351	-0.155427	39.071354
	0.984115	-4.317003	44.801397	1.756624	42.241017
	1.279652	-3.998431	46.381432	0.959936	43.342937
	0.836346	-3.520571	43.379365	1.597286	41.456080
	1.550562	-3.042711	42.905355	1.437949	41.300592
	1.008743	-5.113436	43.221362	2.234636	40.342562
	1.599818	-2.405565	44.327386	3.828011	45.749832
	0.885602	-5.113436	41.325320	0.641261	36.853145
	1.279652	-3.839144	43.695372	1.756624	41.612852
	0.811718	-5.272723	45.433411	1.756624	41.917312
	1.698330	-4.157717	42.589348	1.119274	39.550904
	0.959486	-4.317003	44.011379	1.437949	41.132324
	1.525933	-4.157717	42.589348	3.190661	41.622292
	0.984115	-5.750582	42.273341	4.146686	40.669445
	2.018496	-5.113436	41.167316	3.190661	39.244541
	1.205768	-3.998431	40.693306	2.075299	38.770174
	1.895355	-7.821306	41.483323	-0.474102	33.187915
	1.057999	-4.317003	43.063358	0.959936	39.706291
	1.673702	-4.157717	42.273341	2.075299	40.190922
	1.156511	-3.839144	42.589348	2.712649	41.462852
	1.969240	-5.113436	42.589348	2.553311	40.029223
	1.304280	-1.449847	43.063358	4.146686	45.760198
	1.722958	-5.750582	39.587281	2.234636	36.071335
	1.476677	-3.520571	41.957334	3.349999	41.786761
	1.870727	-5.432009	41.325320	1.278611	37.171922
	1.624446	-2.564852	40.693306	2.234636	40.363090
	2.338662	-6.228441	40.851309	1.597286	36.220154
	1.501305	-5.113436	41.799330	0.800599	37.486493
	1.796843	-5.591295	40.851309	1.278611	36.538625
	1.476677	-4.794863	40.219295	3.031324	38.455756
	1.796843	-5.113436	41.009313	3.668674	39.564550
	1.624446	-4.476290	42.905355	5.421386	43.850451
	1.870727	-4.317003	41.957334	4.943374	42.583704
	1.501305	-4.157717	42.747351	4.306024	42.895658
	1.525933	-2.724139	41.009313	1.437949	39.723123
	1.624446	-7.024874	39.903288	0.959936	33.838350
	1.575190	-5.591295	39.903288	1.119274	35.431266
	1.673702	-2.564852	47.329453	4.943374	49.707974
	1.772215	-1.609133	43.537369	4.306024	46.234259
	1.525933	-5.750582	42.273341	3.349999	39.872757
	1.181140	-5.113436	41.799330	2.871986	39.557880
	1.402793	-3.201998	43.695372	4.624699	45.118073
	1.230396	-5.113436	43.063358	4.465361	42.415283
	1.624446	-5.113436	40.535302	3.668674	39.090540
	1.698330	-3.520571	42.431344	3.828011	42.738784
	2.018496	-3.998431	44.169383	3.668674	43.839626
	1.722958	-3.998431	42.589348	5.262049	43.852966
	2.461802	-3.361285	43.221362	7.014761	46.874838
	2.067752	-3.998431	43.695372	7.492774	47.189715
	3.102134	-3.201998	44.643393	6.855424	48.296819
	2.634199	-3.361285	42.905355	5.740061	45.284131
	3.126762	-0.175555	43.221362	5.899399	48.945206
	2.880481	-2.883425	47.013446	7.174099	51.304119
	3.594696	-3.679858	42.273341	5.421386	44.014869
	3.397671	-3.679858	43.379365	5.899399	45.598906
	4.161143	-1.768420	43.695372	5.899399	47.826351
	3.914862	-0.971987	47.803463	9.564161	56.395637
	4.629078	0.302305	47.013446	10.201511	57.517262
	4.653706	-0.812701	45.433411	8.767474	53.388184
	5.712716	-0.334841	49.857509	10.998199	60.520866
	5.564947	0.461591	46.539435	10.042174	57.043200
	6.525444	1.098737	49.383498	10.998199	61.480434
	6.451560	3.806608	51.437544	12.910248	68.154400
	7.436685	4.762327	53.017579	12.591574	70.371479
	7.412057	5.399473	50.489523	13.388261	69.277257
	8.865117	4.921613	53.965600	17.212361	76.099574
	8.889745	5.877333	55.229628	18.009048	79.116009
	10.071895	5.718046	53.965600	18.646399	78.330044
	9.702473	7.151625	55.703638	17.849711	80.704974
	10.367433	8.585203	59.179715	19.443086	87.208004
	10.786111	13.682371	63.129802	23.267186	100.079360
	11.475699	11.930219	61.391764	22.789174	96.111157
	11.426442	15.593809	63.603813	25.975924	105.173546
	13.519834	12.248793	66.289873	25.179236	103.717901
	13.101155	13.682371	65.025845	25.657249	104.365464
	14.677356	17.345961	68.659925	29.003336	115.009222
	14.480331	16.868101	70.555967	29.959361	117.383429
	16.056532	22.443129	74.348051	33.464786	130.255966
	16.499838	20.850264	73.558034	32.030749	126.439046
	18.002154	23.717420	75.928086	34.420811	134.066318
	17.583476	23.398847	78.614146	35.536174	137.549167
	18.790254	25.150999	80.352184	37.607561	143.110744
	19.110420	26.743864	82.090223	41.431661	150.265748
	20.563480	26.743864	82.564233	39.997624	149.305721
	20.982158	29.770307	86.040310	43.025036	158.835654
	22.336706	34.230329	87.146335	42.547024	163.923688
	22.853897	32.478178	88.568366	43.503049	164.549593
	23.986791	34.708189	92.834461	45.096424	172.639073
	24.873404	35.663908	94.730503	46.211786	176.606197
	25.809273	38.053205	94.730503	48.601849	181.385557
	26.671258	39.486784	96.310537	49.079861	184.877183
	26.769770	41.716795	99.470607	52.107274	193.294676
	27.705640	43.628233	100.260625	52.585286	196.474144
	27.188449	43.946806	99.944618	53.063299	196.954723
	28.247459	50.636839	105.790748	55.294024	211.721610
	28.419856	44.902525	101.524653	53.063299	199.490476
	29.035559	51.114699	106.738769	57.684086	215.537553
	29.060187	52.070417	108.160800	56.728061	216.959279
	30.340850	56.371153	110.530853	59.277461	226.179467
	29.675891	54.619002	110.372849	61.030174	226.022024
	30.710272	56.689726	110.530853	62.782886	230.003465
	30.390107	59.875456	114.480940	64.854274	239.210670
	30.931926	62.742613	119.695056	64.694936	247.132605
	30.587132	61.946180	115.744968	63.579574	241.270722
	30.833413	66.087630	118.589031	66.128974	250.805634
	30.882669	64.654051	117.641010	64.694936	246.989997
	30.858041	67.680495	120.485073	67.881686	256.047254
	30.833413	70.547652	122.697122	71.227774	264.472547
	30.587132	71.503371	122.697122	72.343136	266.543629
	30.340850	73.892668	127.595231	73.458498	274.946397
	30.168453	73.733382	126.963217	74.573861	275.270459
	30.045313	78.511977	128.543252	76.485911	283.541139
	29.725147	78.352690	130.281290	77.123261	285.757241
	29.183328	80.741988	132.335336	78.397961	291.475284
	28.444484	80.741988	132.809346	79.672661	293.223995
	27.828780	84.087004	132.651343	83.178086	299.916433
	26.892911	81.060561	134.547385	83.178086	298.786031
	26.671258	83.609145	136.285423	84.930798	304.825366
	25.095057	83.927717	136.285423	84.771461	304.984601
	25.513735	83.927717	136.917437	83.974773	304.819928
	24.282329	82.334852	135.811413	82.222061	300.368326
	23.691253	83.131285	135.653409	82.062724	300.847418
	22.213565	82.653425	133.757367	81.903386	298.314179
	21.868771	81.856993	138.813479	82.540736	303.211208
	20.243314	84.405577	136.285423	83.178086	303.869086
	20.366455	77.078398	131.703322	79.194648	287.976368
	18.223807	81.379134	135.021395	82.700074	299.100602
	17.977526	78.511977	133.283357	80.788023	292.583357
	16.475210	78.352690	129.333269	80.310011	287.995970
	16.155044	74.529814	127.911238	77.919949	280.361000
	14.726612	74.370528	128.859259	77.282599	280.512385
	14.603472	71.344084	126.805213	73.139824	271.289121
	14.184793	67.999068	120.801080	70.431086	259.231234
	14.086281	63.857619	119.379049	70.431086	253.667753
	13.002643	64.176192	119.063042	69.634399	252.873632
	12.534708	59.875456	115.428961	65.810299	241.114715
	11.869749	59.716169	112.268891	63.420236	235.405297
	11.352558	57.326872	110.688856	62.304874	230.320602
	10.465945	53.981855	109.266825	57.524749	220.773429
	10.145780	52.229704	105.000730	56.568724	213.799158
	9.382307	48.247541	102.630678	54.019324	204.897543
	9.357679	46.017530	100.260625	52.266611	198.544767
	8.495695	45.698957	99.628611	51.947936	197.275505
	8.569579	42.513227	95.204513	48.601849	186.319589
	8.003132	40.283216	92.360450	46.689799	179.333465
	8.027760	42.035368	92.992464	45.733774	180.761606
	7.288916	36.619627	88.094356	43.343711	168.057693
	7.165776	35.026762	86.356317	41.272324	162.655403
	6.451560	31.363172	83.196247	36.332861	150.892280
	6.525444	31.522459	81.932219	35.854849	149.309527
	6.229906	27.699583	77.824128	34.739486	140.263197
	6.008253	27.858870	76.560100	36.173524	140.592493
	5.712716	28.336729	79.404163	36.651536	144.392428
	5.417178	23.558134	73.242027	32.030749	128.830909
	5.540319	24.673140	71.661992	29.481348	125.816480
	4.998500	23.876707	73.716037	30.118699	127.711443
	4.949244	20.213117	68.975932	25.497911	114.686960
	4.629078	19.098112	65.815862	24.223211	109.137185
	5.170897	21.168837	65.973866	25.019899	112.162600
	4.752219	15.912382	65.815862	22.470499	104.198743
	4.949244	17.664534	62.655792	22.151823	102.472149
	4.653706	15.593809	62.023778	20.877123	98.494711
	5.318666	17.027387	61.075757	19.443086	97.546231
	4.702962	13.045225	59.811729	18.646399	91.503353
	5.121641	16.390241	61.707771	20.877123	98.975136
	4.530565	13.045225	57.441677	15.778324	86.265225
	5.195525	14.478804	60.443743	17.371699	92.294245
	4.899987	9.381636	56.177649	16.256336	81.815620
	5.614203	10.655928	56.019645	18.168386	84.843959
	5.269409	11.293074	56.019645	18.009048	85.321767
	5.712716	8.425916	54.913621	14.822299	78.161835
	5.269409	10.655928	54.913621	14.822299	80.391846
	5.885113	7.948057	52.385565	11.954224	72.287845
	5.564947	11.452360	56.493656	15.300311	83.246327
	6.500816	9.700209	57.915687	14.662961	82.278857
	5.811228	11.611647	54.913621	15.300311	81.825578
	6.697841	9.540922	55.071624	15.140974	79.753520
	6.229906	11.930219	56.651659	17.053024	85.634902
	6.623957	10.496641	55.387631	16.256336	82.140608
	6.476188	12.408079	54.597614	15.778324	82.784016
	6.894866	11.133787	58.231694	16.734348	86.099829
	6.599328	12.089506	58.073691	17.053024	87.216220
	6.771725	12.567366	57.757684	17.690373	88.015422
	6.648585	13.045225	59.495722	18.168386	90.709333
	6.623957	13.523085	58.705705	16.734348	88.963138
	6.648585	11.133787	57.757684	17.690373	86.581844
	6.500816	13.523085	58.705705	20.399111	92.627900
	6.057510	16.071669	63.603813	23.107848	102.783330
	5.958997	15.275236	60.917754	20.080436	96.273426
	6.205278	13.204512	60.601747	18.009048	91.815306
	6.008253	14.956663	62.023778	19.124411	96.104852
	6.205278	14.956663	62.181782	19.602424	96.740868
	5.589575	14.797377	60.285740	18.487061	93.570177
	5.835856	14.478804	62.813796	21.514474	98.807073
	5.220153	14.956663	62.023778	20.877123	97.857565
	5.638831	14.160231	64.077824	20.399111	98.637165
	5.146269	13.204512	59.495722	18.327724	91.027957
	5.909741	12.089506	60.917754	18.965074	91.972333
	5.195525	14.160231	61.549768	20.080436	95.790434
	5.540319	14.478804	62.813796	19.761761	97.054360
	5.170897	13.682371	61.707771	19.443086	94.833228
	5.885113	13.523085	60.759750	21.833149	96.115983
	5.023128	12.726652	62.971799	22.151823	97.850275
	6.057510	13.841658	62.971799	23.267186	100.080643
	4.973872	10.815214	60.759750	21.195799	92.770763
	5.909741	15.434522	62.023778	21.036461	98.494762
	5.835856	10.815214	60.759750	18.168386	89.743350
	6.229906	12.089506	60.601747	20.877123	93.568376
	5.737344	12.567366	60.127736	19.602424	92.297525
	6.402303	12.726652	62.971799	18.965074	94.663525
	6.156022	9.063062	59.337719	18.327724	86.728504
	6.476188	10.815214	59.811729	18.965074	89.592017
	6.377675	13.045225	62.339785	21.833149	97.218159
	6.648585	9.540922	60.285740	19.443086	89.269748
	6.747097	12.567366	60.443743	20.399111	93.410220
	7.116519	10.178068	60.285740	19.602424	90.066231
	6.944122	11.452360	63.287806	19.283748	94.023915
	6.820982	9.540922	58.863708	18.327724	86.732354
	7.239660	11.930219	60.127736	17.371699	89.429654
	7.239660	9.381636	59.495722	19.443086	88.320444
	7.239660	12.726652	62.339785	22.629836	97.696273
	7.609082	11.611647	60.759750	21.833149	94.204545
	7.929248	14.478804	58.863708	20.239773	93.582285
	7.584454	12.248793	62.813796	20.717786	95.780374
	8.200157	12.248793	62.813796	19.443086	94.505674
	7.953876	13.523085	61.075757	20.080436	94.679278
	9.012885	13.682371	61.549768	20.239773	95.471912
	8.397182	11.293074	61.549768	20.239773	93.082615
	9.185282	13.682371	62.971799	21.514474	98.168644
	8.594207	14.478804	61.233761	22.151823	97.864387
	9.825614	10.018782	59.495722	18.965074	88.479577
	8.914373	14.638090	64.709838	22.151823	101.499751
	9.800986	17.505247	65.025845	24.382548	106.913640
	9.530076	16.071669	64.077824	21.514474	101.663966
	10.022639	15.275236	63.761817	21.036461	100.073514
	9.850242	17.027387	65.183848	22.948511	105.159746
	10.736855	15.115949	62.655792	23.904536	101.676277
	10.441317	17.983107	63.919820	25.816586	107.719513
	11.007764	18.142393	67.079890	25.019899	110.242182
	10.761483	19.098112	63.445810	23.904536	106.448458
	11.451071	18.460966	66.605880	24.541886	109.608732
	11.229417	20.053831	68.185914	24.701224	112.940969
	11.648096	19.416685	67.395897	23.904536	110.717118
	11.549583	21.168837	67.395897	25.816586	114.381320
	12.066774	20.690977	68.343918	25.338573	114.373469
	12.042146	24.195280	73.400030	28.843999	126.439308
	11.992889	23.239561	70.555967	28.206648	122.002177
	11.623468	21.646696	69.765950	27.091286	118.503931
	12.337683	27.221723	72.926020	29.640686	129.788429
	12.239171	25.628858	75.770083	30.437373	131.836315
	12.707105	27.062437	73.242027	30.596711	130.901175
	12.436196	26.743864	73.084023	30.756049	130.583935
	12.608593	28.655302	76.244093	29.800024	134.699419
	12.633221	27.381010	75.612079	32.668099	135.661188
	12.633221	28.655302	76.086090	34.102136	138.843528
	12.583965	28.814589	77.034110	34.102136	139.950835
	13.027271	32.000318	77.034110	34.102136	143.136565
	12.633221	28.336729	77.034110	32.349424	137.720263
	12.657849	30.566740	77.824128	33.624124	142.014992
	12.657849	30.248167	80.194181	32.668099	143.110446
	12.854874	33.115324	81.616212	35.854849	150.586385
	12.583965	29.929594	79.404163	34.739486	144.073243
	12.559337	32.956038	82.406230	36.810874	152.173141
	12.756362	33.115324	81.774216	36.173524	151.063063
	11.992889	30.885313	81.774216	37.129549	149.789077
	12.559337	35.026762	82.090223	37.607561	154.724546
	12.116030	33.911756	84.934286	38.085574	156.931616
	12.313055	36.301054	85.092289	39.519611	160.912954
	11.869749	34.708189	83.512254	38.244911	156.465354
	12.091402	35.982481	83.670258	36.332861	155.985600
	11.648096	34.071043	84.776282	38.563586	157.410911
	12.165286	33.593183	83.196247	39.041599	155.831029
	11.549583	33.274610	82.248226	39.838286	155.361123
	11.869749	32.000318	83.512254	38.404249	153.916821
	11.229417	33.115324	82.722237	38.085574	153.923134
	11.574211	32.159605	82.406230	37.607561	152.173395
	10.810739	32.159605	81.458208	34.898823	148.516637
	11.648096	32.000318	82.248226	35.376836	149.625381
	11.081649	33.593183	81.932219	36.014186	151.539589
	11.229417	31.841032	81.142202	36.173524	149.156757
	10.515202	32.796751	83.828261	36.810874	153.435886
	11.106277	31.363172	83.196247	35.695511	150.254931
	10.490573	32.000318	79.246160	34.261474	145.507951
	10.909252	30.566740	80.984198	35.536174	147.087111
	10.244292	32.478178	81.616212	36.651536	150.745926
	10.958508	29.929594	79.404163	33.146111	142.479868
	10.441317	34.708189	81.458208	35.536174	151.702571
	10.983136	28.973875	77.982132	34.102136	141.058143
	10.441317	29.929594	82.564233	35.536174	148.030001
	10.736855	30.088881	78.614146	35.854849	144.557875
	9.973383	30.248167	77.666125	34.102136	142.016428
	10.687598	27.858870	77.034110	31.871411	136.764391
	10.170408	28.336729	77.034110	30.915386	136.286226
	10.244292	28.655302	76.560100	30.915386	136.130788
	9.751729	28.496015	74.190048	31.393399	134.079462
	10.047267	27.540297	77.192114	31.552736	136.285147
	9.751729	27.540297	76.244093	31.552736	135.337126
	9.948754	26.743864	75.138069	31.074724	132.956656
	9.653217	25.469572	74.348051	29.800024	129.617647
	9.751729	28.336729	73.242027	29.162674	130.741429
	9.579332	26.425291	74.190048	30.756049	131.371387
	9.111398	28.336729	75.770083	31.552736	135.659548
	9.579332	26.425291	77.350118	29.800024	133.575432
	9.259167	27.699583	73.716037	29.003336	130.418956
	9.406936	25.150999	73.874041	29.003336	128.028376
	9.037514	25.788145	73.558034	28.525324	127.871502
	9.382307	26.425291	73.716037	30.756049	130.897377
	8.988257	23.558134	71.819995	31.074724	126.452853
	9.382307	28.018156	73.558034	32.030749	133.606938
	8.717348	24.513853	74.822062	29.003336	128.339250
	9.136026	23.717420	71.503988	25.657249	120.878657
	8.471067	24.832426	72.452009	28.365986	125.650421
	9.677845	24.354567	70.871974	26.453936	121.680477
	8.421810	24.991712	72.926020	28.843999	126.761730
	9.209910	25.150999	72.452009	28.365986	125.968994
	8.446438	23.876707	69.765950	28.047311	121.689967
	9.160654	27.221723	71.187981	29.003336	127.413041
	8.003132	24.673140	74.190048	29.162674	128.025861
	9.086770	24.195280	70.239960	27.250623	121.685864
	8.150901	24.513853	71.661992	28.206648	124.382493
	8.988257	26.106718	71.661992	25.975924	123.744633
	8.495695	22.283842	71.819995	28.206648	122.310485
	9.012885	23.398847	69.607946	27.887974	120.894767
	8.668092	22.283842	68.343918	28.365986	118.993746
	9.234539	22.602415	72.294006	30.118699	125.015119
	8.643463	24.195280	71.029978	29.003336	124.228594
	8.914373	24.354567	71.819995	28.684661	124.859223
	8.643463	23.080275	70.713971	25.975924	119.770169
	8.544951	23.558134	71.503988	26.931949	121.994071
	8.101645	26.266004	71.503988	28.843999	126.613991
	8.397182	23.239561	70.871974	28.047311	122.158846
	8.471067	23.558134	72.610012	27.569299	123.737445
	8.101645	22.124555	69.291939	26.613274	118.029768
	8.372554	25.310286	71.345985	28.047311	124.703581
	8.175529	22.602415	71.187981	27.409961	121.200357
	8.397182	22.602415	70.555967	26.931949	120.090331
	7.658338	23.080275	68.975932	27.569299	119.625505
	8.323298	23.398847	70.713971	27.728636	121.841454
	7.658338	21.009550	70.871974	25.657249	117.538773
	8.766604	23.558134	70.397964	27.091286	121.047383
	7.756851	25.628858	73.400030	31.712074	130.740962
	8.865117	22.283842	72.136002	30.915386	125.335230
	8.175529	20.372404	68.185914	25.497911	114.056230
	8.544951	20.213117	68.817928	25.338573	114.369619
	8.200157	20.531690	67.237894	24.223211	111.992795
	8.544951	21.009550	71.029978	25.338573	117.378101
	8.347926	24.035993	69.607946	26.135261	119.779201
	8.471067	20.213117	68.185914	25.338573	113.737605
	8.298670	21.646696	69.133936	25.657249	116.437880
	8.544951	19.257399	67.711904	24.860561	111.829864
	8.298670	23.558134	68.027911	25.338573	116.924619
	8.766604	17.664534	65.657859	23.745199	107.067591
	8.274041	21.009550	69.133936	25.975924	116.119409
	8.323298	21.965269	72.452009	25.975924	120.393202
	8.274041	22.443129	68.343918	24.063874	114.850920
	8.520323	17.983107	68.659925	24.541886	111.184918
	8.544951	21.009550	67.395897	26.931949	115.337396
	8.569579	20.531690	68.185914	27.409961	116.127566
	8.520323	18.779539	67.395897	27.091286	113.266722
	8.668092	20.372404	68.501922	25.179236	114.053562
	8.692720	19.894544	70.081957	26.613274	116.589775
	8.372554	20.690977	68.343918	24.541886	113.576781
	8.668092	21.009550	68.501922	24.223211	113.734683
	8.618835	22.920988	68.659925	24.860561	116.441474
	8.717348	16.549528	64.867841	21.833149	103.250518
	8.421810	21.009550	67.237894	24.701224	112.948667
	8.840489	23.558134	72.452009	27.409961	123.420104
	8.520323	19.257399	67.395897	24.063874	110.717169
	8.840489	18.938826	66.447876	23.426524	108.813225
	8.692720	25.788145	73.400030	29.800024	128.988199
	9.505448	22.920988	70.081957	26.453936	119.456881
	8.815860	24.673140	71.977998	28.206648	124.857787
	9.530076	22.283842	69.923953	25.816586	118.024381
	8.643463	19.257399	65.499855	23.745199	108.502452
	9.603961	22.920988	73.558034	29.481348	125.960370
	9.012885	21.009550	69.765950	27.569299	118.344798
	9.554704	24.832426	71.661992	28.525324	125.019741
	9.185282	21.965269	70.555967	26.135261	118.656497
	9.776358	21.805983	69.765950	24.382548	115.954481
	9.603961	25.150999	72.136002	27.887974	125.174975
	9.776358	24.195280	68.185914	25.497911	117.879105
	9.530076	23.239561	71.661992	26.931949	121.833501
	9.751729	23.558134	71.345985	26.931949	121.836067
	9.653217	24.035993	71.029978	27.569299	122.635270
	9.727101	26.106718	71.029978	27.250623	124.387319
	9.234539	24.354567	72.294006	28.365986	125.014558
	9.825614	23.876707	71.187981	26.772611	121.837299
	9.677845	24.195280	70.081957	27.409961	121.687197
	9.480820	24.513853	73.874041	27.409961	125.797854
	9.554704	25.310286	72.610012	27.250623	125.170922
	9.308423	24.354567	70.555967	26.294599	121.205132
	9.653217	28.177443	75.454076	31.393399	135.024917
	9.086770	26.584578	74.506055	32.030749	133.121380
	10.293548	29.611021	73.242027	31.234061	134.087108
	9.185282	24.991712	71.345985	30.278036	126.615733
	9.973383	26.106718	75.928086	28.206648	130.241453
	9.406936	26.106718	73.558034	28.525324	128.190075
	10.145780	28.177443	74.190048	28.365986	130.733476
	9.530076	25.150999	73.716037	28.525324	127.392359
	9.973383	24.673140	72.926020	26.931949	124.531108
	9.653217	26.743864	74.190048	29.959361	130.893273
	9.948754	26.743864	72.452009	29.800024	128.995897
	9.603961	24.195280	71.503988	26.931949	122.631217
	9.874870	25.469572	74.190048	28.047311	127.706930
	9.406936	27.858870	74.348051	30.437373	132.644294
	9.579332	25.947432	73.242027	27.569299	126.758757
	9.480820	26.584578	74.664058	27.887974	129.136609
	9.086770	26.106718	73.874041	28.365986	128.346744
	9.406936	25.788145	72.610012	30.756049	129.154206
	9.037514	24.513853	71.819995	30.915386	127.249234
	9.776358	28.018156	75.138069	29.959361	133.115586
	8.914373	24.991712	71.819995	28.365986	125.177694
	9.431564	26.584578	74.190048	28.047311	128.821936
	8.988257	26.106718	73.558034	28.365986	128.030738
	9.825614	26.584578	72.926020	27.409961	126.920558
	8.963629	24.035993	71.977998	27.091286	123.105278
	9.751729	24.673140	70.871974	27.091286	122.636400
	9.111398	25.628858	73.716037	28.047311	127.392207
	9.751729	22.920988	69.607946	26.613274	119.142207
	8.840489	25.469572	73.242027	29.003336	127.714935
	9.800986	24.513853	71.819995	26.931949	123.265797
	9.209910	25.469572	73.084023	28.206648	126.760244
	9.850242	26.266004	72.452009	28.843999	127.562012
	9.653217	26.266004	70.871974	27.409961	124.547939
	9.924126	24.195280	73.716037	26.294599	124.205916
	9.480820	26.106718	71.819995	27.728636	125.655349
	9.653217	26.425291	73.558034	29.959361	129.942686
	9.702473	28.655302	73.874041	30.915386	133.444729
	9.899498	23.717420	71.187981	28.525324	123.430725
	9.579332	26.106718	71.977998	28.365986	126.450703
	9.480820	25.947432	71.503988	28.047311	125.498731
	10.047267	26.106718	72.768016	25.497911	124.372645
	9.136026	23.876707	71.661992	26.931949	122.470647
	9.603961	24.035993	70.871974	26.294599	121.202566
	8.865117	25.150999	72.452009	27.887974	125.490982
	9.751729	26.743864	72.452009	28.365986	127.561859
	8.889745	23.876707	71.345985	27.091286	122.313977
	9.530076	25.628858	71.977998	27.728636	125.335493
	8.815860	26.106718	72.768016	28.047311	126.922045
	9.603961	24.195280	74.348051	25.975924	124.519254
	8.668092	26.425291	71.819995	27.250623	125.495910
	9.751729	25.788145	72.926020	28.047311	126.761476
	8.668092	25.150999	72.136002	29.800024	127.087025
	9.677845	25.150999	72.294006	29.162674	126.607678
	8.914373	27.699583	71.029978	27.728636	126.458197
	9.653217	24.832426	72.452009	29.003336	126.287771
	8.939001	24.513853	73.874041	25.816586	124.204480
	9.480820	24.673140	70.239960	25.338573	120.251673
	9.333051	27.381010	72.768016	27.091286	127.240312
	9.628589	23.239561	70.871974	25.816586	119.928121
	9.382307	26.266004	72.926020	28.206648	127.398673
	9.825614	25.310286	70.555967	27.091286	122.957539
	8.988257	24.513853	73.558034	27.728636	125.800522
	9.333051	26.106718	73.242027	27.409961	126.758706
	8.988257	26.106718	72.452009	28.525324	127.084051
	9.259167	24.832426	71.187981	26.772611	122.793018
	8.766604	28.177443	72.294006	27.409961	127.881409
	9.357679	27.381010	72.452009	27.887974	127.720993
	8.717348	24.354567	71.977998	25.657249	121.989813
	8.865117	26.266004	72.452009	27.569299	126.287312
	8.939001	25.310286	75.138069	28.047311	128.495665
	8.692720	27.858870	71.029978	29.162674	128.051521
	8.914373	24.832426	71.661992	29.322011	125.816429
	8.298670	26.266004	72.768016	27.250623	126.284644
	9.160654	25.469572	72.136002	26.294599	123.900173
	8.594207	28.814589	70.871974	25.338573	125.025136
	9.111398	24.673140	70.555967	27.409961	122.639068
	8.101645	27.221723	73.242027	28.684661	129.148411
	8.840489	22.920988	70.397964	25.179236	118.498188
	8.126273	20.850264	68.817928	24.382548	114.050740
	8.939001	25.310286	72.136002	27.409961	124.856249
	8.495695	25.628858	73.242027	28.206648	127.077534
	8.988257	24.991712	71.661992	26.931949	123.585653
	8.421810	24.832426	70.239960	26.772611	121.844997
	8.766604	25.788145	71.345985	27.250623	124.384753
	8.791232	22.124555	70.081957	23.426524	115.633036
	9.209910	23.717420	69.291939	26.294599	119.303958
	8.668092	24.195280	70.397964	27.569299	122.162542
	9.234539	29.451735	73.242027	30.278036	132.971797
	8.717348	25.150999	72.136002	29.481348	126.768349
	8.865117	25.947432	70.713971	27.887974	124.549376
	8.668092	25.310286	72.452009	26.931949	124.694243
	9.111398	24.354567	71.503988	25.179236	121.037791
	8.963629	23.080275	69.133936	23.904536	116.118746
	9.062142	24.354567	70.871974	25.975924	121.202464
	8.840489	24.832426	71.345985	25.816586	121.994996
	8.865117	24.832426	71.503988	27.091286	123.427700
	8.939001	28.336729	70.239960	27.569299	126.145988
	8.914373	27.858870	73.242027	29.959361	131.060257
	8.988257	24.673140	71.977998	26.453936	123.105074
	8.717348	23.239561	68.817928	24.860561	116.918050
	8.963629	25.628858	70.081957	25.497911	121.208726
	8.495695	23.080275	70.555967	24.541886	118.178128
	9.111398	24.035993	70.397964	26.453936	120.887893
	9.136026	24.991712	70.239960	28.843999	124.075671
	9.136026	25.788145	67.711904	26.453936	119.953985
	8.766604	24.832426	72.926020	27.569299	125.327744
	9.333051	24.354567	69.449943	25.338573	119.143083
	8.569579	27.221723	73.084023	27.409961	127.715707
	9.259167	22.920988	67.869908	22.311161	113.102057
	8.963629	24.832426	72.452009	26.772611	124.057046
	8.865117	25.150999	71.345985	26.613274	123.110257
	9.037514	25.310286	70.555967	26.931949	122.798201
	9.185282	23.398847	72.294006	26.453936	122.146789
	9.111398	25.628858	72.136002	27.091286	124.856146
	9.185282	22.124555	68.501922	24.223211	114.849688
	8.988257	25.469572	71.661992	27.250623	124.382187
	8.865117	26.903150	73.400030	28.525324	128.828504
	9.012885	26.266004	70.397964	25.975924	122.639892
	8.791232	22.920988	69.133936	24.223211	116.278135
	9.062142	25.628858	72.926020	26.294599	124.849477
	8.274041	24.832426	70.081957	27.091286	122.005669
	9.185282	24.832426	70.713971	28.365986	123.912383
	8.372554	24.673140	71.345985	29.003336	125.022460
	9.259167	25.628858	71.819995	28.047311	125.496165
	8.643463	25.150999	70.239960	26.772611	122.163570
	9.209910	26.106718	70.713971	26.931949	123.752637
	8.594207	25.150999	71.819995	24.701224	121.672218
	9.234539	25.150999	69.765950	25.975924	120.892872
	8.446438	28.496015	73.716037	28.843999	131.056051
	9.111398	23.239561	71.029978	26.294599	120.564137
	8.741976	29.451735	72.926020	28.206648	130.584403
	9.136026	24.513853	71.029978	26.453936	121.997766
	8.717348	25.310286	70.713971	26.931949	122.956205
	9.136026	25.628858	72.294006	26.772611	124.695475
	8.889745	25.947432	74.190048	25.657249	125.794728
	9.185282	24.832426	71.661992	25.816586	122.311004
	8.963629	25.150999	71.029978	26.135261	122.316237
	9.234539	25.310286	71.661992	28.206648	125.178926
	9.062142	28.177443	72.452009	29.003336	129.632788
	9.234539	25.150999	71.029978	28.684661	124.865637
	8.988257	25.788145	71.503988	26.931949	124.224082
	8.963629	25.788145	74.348051	25.975924	126.112120
	9.062142	28.655302	74.032044	28.047311	130.734657
	8.766604	25.469572	72.452009	27.250623	125.172205
	9.111398	26.106718	72.452009	26.931949	125.490676
	8.544951	25.947432	72.452009	27.091286	125.490726
	8.889745	24.673140	71.187981	26.453936	122.315057
	8.495695	26.584578	70.397964	26.772611	123.755152
	9.308423	22.602415	72.452009	25.338573	120.392998
	8.692720	24.195280	69.765950	25.497911	119.459141
	9.111398	24.673140	70.713971	25.338573	120.725684
	8.323298	27.062437	71.345985	26.613274	125.021695
	9.160654	24.513853	71.345985	25.657249	121.517086
	8.717348	25.628858	69.923953	25.338573	120.891385
	9.185282	25.628858	71.345985	25.019899	121.994742
	9.111398	22.920988	73.558034	27.091286	123.570308
	9.382307	25.150999	70.555967	28.206648	123.913615
	8.840489	25.469572	71.661992	27.569299	124.700862
	9.185282	24.832426	70.871974	25.975924	121.680324
	8.791232	25.310286	71.977998	25.816586	123.104870
	9.111398	25.469572	70.555967	25.179236	121.204775
	8.643463	24.832426	69.449943	25.497911	119.780280
	9.136026	25.150999	69.607946	25.338573	120.097518
	9.037514	23.876707	72.294006	26.135261	122.305974
	9.062142	27.221723	70.871974	27.091286	125.184984
	8.963629	25.150999	71.503988	26.294599	122.949586
	9.086770	26.106718	72.136002	26.772611	125.015331
	8.692720	25.310286	71.345985	25.975924	122.632193
	8.840489	27.221723	70.239960	26.135261	123.596945
	9.012885	25.788145	70.713971	25.179236	121.681352
	8.939001	25.947432	72.926020	26.135261	125.008712
	9.012885	23.080275	68.343918	25.657249	117.081441
	8.766604	26.903150	71.345985	28.843999	127.093133
	9.037514	25.150999	71.819995	29.003336	125.974330
	8.741976	26.266004	72.452009	27.409961	126.127974
	9.062142	24.354567	70.397964	26.772611	121.525141
	8.224785	26.106718	71.503988	26.613274	124.223980
	9.086770	26.903150	72.610012	25.975924	125.489086
	8.249413	25.310286	70.871974	25.816586	121.998846
	9.234539	25.628858	72.452009	25.657249	123.738116
	8.347926	25.150999	71.661992	26.294599	123.107589
	9.283795	28.655302	71.187981	26.294599	126.137882
	8.815860	24.832426	69.765950	26.453936	121.052312
	9.456192	26.584578	71.187981	27.250623	125.023182
	8.692720	24.673140	71.977998	25.657249	122.308387
	9.382307	26.266004	70.871974	26.135261	123.273240
	8.594207	27.540297	73.558034	28.525324	129.623654
	9.530076	25.788145	71.977998	25.657249	123.423392
	8.668092	26.106718	71.661992	25.497911	123.266621
	9.086770	24.354567	71.661992	25.338573	121.355132
	8.889745	24.195280	69.607946	25.497911	119.301137
	9.160654	27.858870	71.187981	25.816586	124.863437
	9.012885	26.425291	74.980065	27.569299	128.974654
	8.865117	24.991712	70.239960	25.657249	120.888921
	8.865117	26.743864	71.819995	25.975924	124.539783
	8.939001	24.991712	74.190048	25.019899	124.201659
	8.914373	27.540297	72.136002	25.657249	125.333547
	9.259167	27.221723	71.819995	26.613274	125.654992
	9.185282	24.673140	69.133936	25.497911	119.304986
	8.939001	24.513853	71.503988	26.135261	122.153102
	8.865117	26.425291	72.294006	27.091286	125.810583
	8.717348	26.425291	71.819995	26.772611	125.017897
	9.062142	26.106718	72.136002	27.091286	125.334006
	8.274041	28.973875	71.029978	27.409961	127.413813
	8.939001	25.310286	72.768016	26.135261	124.213563
	8.372554	25.788145	70.713971	26.135261	122.637377
	8.939001	24.832426	70.871974	25.497911	121.202311
	8.372554	27.062437	72.452009	27.728636	127.243082
	8.963629	24.991712	68.659925	25.179236	118.830874
	8.495695	26.584578	73.084023	26.772611	126.441211
	9.160654	24.195280	70.713971	25.816586	120.725836
	8.594207	25.947432	71.503988	26.931949	124.383368
	9.554704	25.788145	71.503988	26.453936	123.746069
	8.791232	23.876707	69.607946	25.497911	118.982564
	9.086770	24.991712	71.029978	25.019899	121.041589
	8.766604	26.266004	73.716037	26.772611	126.754652
	9.136026	23.876707	69.291939	22.948511	116.117157
	8.741976	24.354567	70.239960	23.904536	118.499063
	8.692720	25.788145	71.345985	24.701224	121.835353
	8.692720	25.469572	70.239960	25.497911	121.207443
	8.840489	26.106718	71.187981	27.409961	124.704660
	8.963629	26.425291	73.242027	29.481348	129.148666
	8.569579	25.947432	70.713971	28.206648	124.868051
	9.062142	30.566740	73.716037	29.003336	133.286113
	8.594207	25.150999	71.661992	28.206648	125.019639
	8.766604	24.354567	69.291939	25.497911	119.144417
	8.643463	24.991712	71.345985	25.975924	122.313620
	9.234539	23.717420	72.136002	24.063874	119.917296
	8.372554	27.699583	71.503988	26.294599	125.498170
	9.185282	24.673140	71.819995	25.497911	121.991046
	8.471067	26.106718	71.661992	25.179236	122.947946
	9.086770	25.310286	69.607946	24.541886	119.460118
	8.668092	24.673140	69.923953	26.135261	120.732354
	9.579332	28.496015	71.661992	24.860561	125.018568
	8.963629	27.221723	73.400030	28.365986	128.987740
	9.308423	26.106718	72.136002	26.135261	124.377981
	8.939001	24.195280	69.765950	25.019899	118.981128
	9.333051	24.832426	69.765950	25.497911	120.096287
	9.136026	28.814589	73.716037	26.772611	129.303236
	9.259167	24.195280	69.291939	25.816586	119.303805
	8.939001	28.655302	73.558034	29.003336	131.216671
	9.209910	25.788145	71.345985	25.816586	122.950716
	8.889745	26.106718	71.661992	26.772611	124.541321
	9.062142	28.655302	69.923953	26.294599	124.873854
	8.939001	24.832426	74.032044	25.816586	124.681056
	8.815860	26.266004	71.187981	26.931949	124.385934
	8.963629	24.354567	69.923953	24.541886	118.820406
	8.569579	25.150999	71.029978	28.365986	124.546963
	8.963629	27.381010	71.819995	26.613274	125.814279
	8.594207	25.469572	70.871974	26.453936	122.795482
	8.939001	26.106718	72.452009	25.816586	124.375313
	8.471067	26.425291	70.081957	24.860561	121.367809
	8.791232	27.540297	72.768016	26.931949	127.240261
	8.347926	27.540297	72.768016	28.047311	128.355624
	9.160654	25.469572	71.661992	28.843999	125.975562
	8.347926	26.903150	70.397964	28.525324	125.826437
	9.406936	25.150999	71.187981	27.409961	123.748941
	8.323298	27.540297	71.503988	28.525324	127.569608
	8.889745	24.513853	71.187981	27.250623	122.952458
	8.397182	25.469572	71.977998	27.569299	125.016869
	9.185282	25.628858	71.029978	25.657249	122.316085
	8.717348	24.354567	70.239960	25.497911	120.092438
	9.136026	27.062437	72.136002	24.223211	123.421650
	8.692720	25.310286	74.190048	25.657249	125.157582
	9.283795	24.673140	69.765950	24.701224	119.140313
	8.988257	24.354567	70.081957	24.382548	118.819072
	9.234539	24.354567	69.765950	24.860561	118.981077
	8.840489	28.973875	73.084023	28.843999	130.901896
	9.086770	23.717420	68.659925	25.019899	117.397244
	8.865117	25.310286	72.452009	26.294599	124.056893
	8.840489	26.106718	71.819995	27.569299	125.496012
	8.717348	22.920988	70.397964	25.816586	119.135537
	8.865117	25.628858	71.503988	27.250623	124.383470
	8.914373	25.628858	71.503988	26.772611	123.905457
	8.741976	26.903150	74.348051	28.206648	129.457850
	9.136026	27.062437	72.452009	28.206648	127.721095
	8.692720	25.628858	71.029978	26.772611	123.431447
	9.111398	24.832426	70.871974	25.975924	121.680324
	8.668092	24.513853	71.187981	26.294599	121.996433
	8.840489	25.150999	68.975932	26.453936	120.580867
	8.446438	24.991712	73.874041	26.135261	125.001014
	9.160654	24.354567	70.397964	25.816586	120.569116
	8.274041	24.832426	71.029978	25.497911	121.360315
	9.209910	23.080275	69.607946	24.223211	116.911432
	8.668092	24.832426	70.555967	24.541886	119.930279
	9.062142	25.788145	71.345985	27.091286	124.225415
	8.618835	28.018156	73.558034	27.887974	129.464163
	9.431564	22.602415	68.817928	27.250623	118.670967
	8.717348	25.150999	71.187981	28.684661	125.023641
	9.406936	25.150999	71.029978	27.728636	123.909613
	9.037514	24.673140	71.661992	29.322011	125.657142
	9.209910	27.540297	68.975932	26.453936	122.970165
	8.741976	26.743864	72.768016	28.525324	128.037204
	9.308423	24.673140	71.503988	25.179236	121.356364
	8.815860	26.584578	72.452009	26.772611	125.809197
	9.308423	25.469572	71.819995	25.179236	122.468803
	9.062142	25.310286	70.239960	25.338573	120.888819
	9.259167	24.673140	70.239960	25.497911	120.411011
	9.037514	26.743864	73.874041	27.569299	128.187203
	9.160654	26.425291	72.610012	27.250623	126.285927
	8.815860	25.628858	71.187981	26.294599	123.111438
	8.717348	24.832426	71.503988	26.931949	123.268363
	9.012885	26.266004	72.452009	27.569299	126.287312
	8.618835	25.788145	71.187981	27.250623	124.226750
	8.914373	26.584578	71.661992	28.525324	126.771893
	8.692720	27.699583	73.084023	27.409961	128.193567
	8.865117	24.832426	70.871974	27.091286	122.795686
	8.347926	24.195280	70.239960	25.497911	119.933151
	9.382307	25.469572	72.136002	26.772611	124.378185
	8.175529	24.354567	70.713971	26.772611	121.841148
	9.012885	28.336729	71.977998	27.728636	128.043363
	8.150901	24.354567	72.610012	25.657249	122.621827
	8.939001	26.425291	71.819995	26.931949	125.177235
	8.249413	26.266004	71.503988	25.497911	123.267904
	8.963629	25.469572	71.503988	25.657249	122.630809
	8.495695	27.062437	69.607946	25.179236	121.849619
	9.160654	24.195280	71.977998	25.975924	122.149202
	8.569579	25.788145	71.029978	26.613274	123.431396
	9.308423	23.717420	69.607946	26.294599	119.619965
	8.347926	24.673140	71.819995	28.525324	125.018458
	9.382307	27.858870	71.187981	28.684661	127.731512
	8.643463	24.513853	70.081957	28.206648	122.802458
	9.209910	26.743864	73.716037	27.887974	128.347874
	8.741976	26.425291	74.190048	28.047311	128.662650
	9.456192	26.266004	70.555967	24.860561	121.682533
	9.086770	24.832426	71.187981	25.338573	121.358981
	9.357679	23.876707	70.397964	23.904536	118.179206
	8.889745	25.150999	69.449943	25.019899	119.620840
	9.259167	24.195280	69.449943	24.541886	118.187109
	8.988257	26.584578	71.661992	25.338573	123.585143
	9.406936	24.195280	70.081957	25.497911	119.775148
	8.692720	24.354567	70.081957	25.338573	119.775097
	9.062142	25.150999	71.345985	26.135261	122.632244
	8.741976	28.973875	74.506055	30.437373	133.917303
	9.185282	27.062437	70.397964	27.091286	124.551687
	9.209910	22.124555	72.136002	23.904536	118.165094
	9.062142	25.310286	70.081957	26.135261	121.527503
	8.865117	25.628858	71.503988	26.772611	123.905457
	9.111398	24.991712	71.819995	27.409961	124.221669
	8.865117	25.947432	71.661992	27.250623	124.860047
	8.914373	25.150999	70.239960	27.091286	122.482245
	8.594207	24.832426	71.819995	25.657249	122.309670
	8.643463	26.743864	70.871974	26.135261	123.751099
	8.618835	26.903150	71.187981	25.497911	123.589043
	8.372554	25.628858	73.084023	26.931949	125.644830
	8.668092	25.628858	71.029978	25.975924	122.634760
	8.323298	26.743864	70.871974	26.453936	124.069774
	8.914373	25.947432	74.506055	27.887974	128.341459
	8.249413	26.743864	70.871974	27.728636	125.344474
	8.815860	25.150999	70.713971	28.206648	124.071618
	8.298670	26.266004	72.294006	29.481348	128.041359
	9.136026	26.106718	70.397964	29.481348	125.986030
	8.150901	26.266004	71.029978	29.003336	126.299318
	8.988257	27.221723	72.452009	28.206648	127.880381
	8.101645	25.788145	71.503988	29.322011	126.614144
	9.136026	24.832426	71.187981	25.975924	121.996330
	8.323298	24.832426	70.397964	25.497911	120.728301
	8.865117	24.673140	69.923953	24.701224	119.298316
	8.077016	28.655302	71.977998	25.657249	126.290549
	9.062142	24.673140	73.242027	24.860561	122.775727
	8.594207	25.788145	70.713971	25.816586	122.318702
	8.889745	24.832426	70.239960	25.019899	120.092285
	8.865117	24.991712	70.555967	25.816586	121.364266
	9.357679	22.920988	67.711904	22.948511	113.581403
	8.495695	25.310286	69.449943	26.453936	121.214164
	9.234539	26.106718	72.768016	27.091286	125.966020
	8.865117	27.858870	73.716037	29.003336	130.578242
	9.308423	25.628858	71.345985	27.091286	124.066129
	8.594207	26.266004	73.084023	27.887974	127.238001
	8.939001	22.920988	68.817928	24.382548	116.121465
	8.939001	28.814589	72.452009	29.640686	130.907284
	9.308423	24.513853	72.926020	25.657249	123.097121
	8.692720	26.903150	71.029978	26.294599	124.227727
	9.037514	26.106718	72.610012	26.453936	125.170666
	8.741976	25.788145	71.661992	25.657249	123.107385
	8.889745	25.788145	70.555967	25.338573	121.682686
	8.544951	25.788145	69.607946	26.135261	121.531352
	9.136026	28.018156	72.294006	27.091286	127.403447
	8.815860	24.195280	68.185914	26.772611	119.153805
	9.012885	25.310286	70.713971	26.772611	122.796867
	8.668092	25.150999	71.029978	28.047311	124.228287
	9.012885	24.673140	69.607946	27.569299	121.850384
	8.815860	26.743864	70.555967	28.365986	125.665817
	9.062142	25.628858	75.770083	30.278036	131.676977
	8.618835	26.584578	71.503988	28.206648	126.295214
	9.062142	26.106718	71.503988	27.409961	125.020667
	8.791232	24.354567	71.029978	25.657249	121.041793
	8.988257	25.788145	70.397964	25.338573	121.524682
	8.741976	24.832426	70.081957	25.179236	120.093619
	9.086770	24.832426	71.345985	24.541886	120.720297
	8.471067	28.973875	72.294006	28.525324	129.793204
	8.815860	26.266004	70.713971	25.657249	122.637224
	8.618835	22.602415	69.133936	24.382548	116.118899
	9.037514	24.991712	71.187981	25.657249	121.836942
	8.766604	25.628858	69.765950	26.772611	122.167419
	8.914373	23.239561	69.923953	25.657249	118.820763
	8.791232	29.929594	72.768016	27.569299	130.266908
	8.865117	24.195280	70.397964	26.135261	120.728504
	8.569579	26.106718	71.345985	26.931949	124.384651
	9.111398	25.150999	70.555967	26.294599	122.001565
	8.594207	24.673140	69.607946	25.816586	120.097672
	9.308423	25.628858	71.345985	25.497911	122.472754
	8.594207	24.673140	70.397964	26.135261	121.206364
	8.889745	25.628858	70.871974	26.135261	122.636094
	8.668092	26.584578	72.294006	26.931949	125.810532
	9.062142	24.195280	71.345985	25.657249	121.198513
	8.643463	29.133161	70.871974	27.250623	127.255759
	9.259167	24.354567	73.400030	24.701224	122.455820
	8.766604	25.150999	69.765950	24.382548	119.299497
	9.603961	24.035993	69.923953	24.382548	118.342495
	8.643463	24.035993	70.397964	25.816586	120.250543
	9.111398	26.584578	70.239960	27.250623	124.075161
	8.963629	25.310286	70.397964	28.525324	124.233573
	9.209910	25.628858	72.136002	28.047311	125.812172
	9.012885	25.947432	69.607946	28.684661	124.240038
	9.136026	25.469572	71.345985	27.887974	124.703530
	8.692720	25.628858	71.345985	26.931949	123.906791
	9.062142	24.832426	70.555967	25.497911	120.886304
	8.618835	26.584578	69.923953	26.613274	123.121804
	9.406936	24.832426	70.555967	24.063874	119.452267
	8.815860	27.699583	71.187981	25.657249	124.544813
	9.136026	24.832426	71.503988	25.975924	122.312338
	8.865117	25.469572	71.503988	25.657249	122.630809
	9.677845	26.903150	72.136002	27.250623	126.289776
	9.037514	24.035993	70.081957	26.294599	120.412549
	9.259167	26.743864	71.661992	25.497911	123.903767
	8.643463	27.540297	73.084023	28.843999	129.468318
	8.889745	24.513853	70.081957	25.497911	120.093721
	9.012885	25.150999	70.397964	25.816586	121.365549
	9.333051	25.310286	70.555967	25.975924	121.842176
	8.766604	27.381010	70.871974	27.409961	125.662945
	9.160654	24.673140	69.765950	26.135261	120.574350
	8.766604	26.425291	73.242027	27.409961	127.077279
	9.209910	25.469572	70.871974	26.135261	122.476807
	8.741976	26.425291	69.133936	23.745199	119.304425
	8.791232	26.425291	73.084023	26.453936	125.963250
	8.766604	26.266004	71.187981	25.497911	122.951897
	9.160654	28.336729	72.294006	27.887974	128.518708
	8.569579	25.947432	74.822062	28.365986	129.135479
	8.766604	27.540297	71.187981	28.206648	126.934926
	8.865117	23.558134	70.239960	27.569299	121.367393
	8.914373	26.743864	72.452009	29.162674	128.358547
	8.791232	26.584578	70.713971	29.800024	127.098572
	8.520323	25.628858	70.871974	28.684661	125.185494
	8.963629	30.566740	73.558034	29.959361	134.084135
	8.569579	25.150999	70.871974	28.365986	124.388959
	9.037514	26.584578	71.661992	27.728636	125.975205
	8.618835	26.584578	71.503988	28.206648	126.295214
	8.397182	25.788145	70.871974	26.772611	123.432730
	8.471067	27.540297	72.926020	25.816586	126.282902
	9.037514	24.354567	71.819995	25.179236	121.353798
	8.569579	27.062437	72.136002	27.091286	126.289725
	8.791232	28.973875	73.558034	28.684661	131.216570
	8.963629	26.903150	71.503988	27.250623	125.657762
	8.939001	25.628858	70.713971	26.294599	122.637428
	8.741976	25.469572	69.607946	26.453936	121.531454
	8.865117	28.973875	75.454076	29.003336	133.431286
	8.175529	25.310286	70.239960	26.135261	121.685507
	8.791232	26.584578	71.029978	26.135261	123.749816
	8.224785	23.558134	70.081957	25.497911	119.138002
	8.569579	24.832426	69.923953	25.816586	120.572965
	8.963629	24.035993	68.343918	25.179236	117.559148
	8.692720	25.310286	74.980065	27.091286	127.381637
	8.618835	28.814589	71.661992	27.091286	127.567866
	8.643463	24.991712	71.029978	25.657249	121.678939
	8.397182	27.062437	72.768016	27.091286	126.921739
	8.668092	26.425291	71.977998	25.657249	124.060538
	8.520323	26.584578	71.187981	27.091286	124.863844
	9.037514	26.743864	72.768016	26.613274	126.125154
	8.569579	24.354567	69.133936	27.091286	120.579788
	9.234539	23.717420	68.501922	25.179236	117.398578
	8.668092	25.469572	71.503988	28.525324	125.498884
	8.692720	24.354567	70.871974	28.684661	123.911202
	8.520323	26.743864	71.187981	29.162674	127.094519
	9.012885	25.788145	75.138069	29.481348	130.407562
	8.372554	26.425291	71.661992	28.525324	126.612606
	8.692720	24.195280	69.449943	26.135261	119.780484
	8.569579	25.150999	71.029978	26.772611	122.953587
	8.791232	26.584578	70.397964	27.250623	124.233165
	8.520323	24.991712	69.607946	25.975924	120.575582
	8.865117	25.788145	71.819995	25.657249	123.265389
	8.249413	26.266004	71.187981	25.497911	122.951897
	8.692720	25.628858	71.661992	25.657249	122.948099
	8.347926	26.903150	72.610012	26.772611	126.285774
	8.544951	25.310286	69.923953	25.657249	120.891487
	8.175529	25.628858	71.029978	25.657249	122.316085
	8.741976	23.239561	71.345985	23.585861	118.171406
	8.323298	29.929594	72.610012	28.525324	131.064930
	8.963629	22.602415	69.291939	24.223211	116.117565
	8.224785	26.903150	72.610012	28.047311	127.560474
	8.914373	25.628858	69.765950	25.497911	120.892719
	8.298670	26.425291	71.345985	28.365986	126.137262
	8.865117	29.611021	73.400030	27.250623	130.261674
	8.323298	24.991712	69.765950	26.453936	121.211598
	8.815860	24.673140	69.923953	25.338573	119.935666
	8.224785	26.106718	71.661992	26.931949	124.700658
	8.963629	26.425291	71.187981	26.453936	124.067208
	8.175529	25.469572	68.343918	24.541886	118.355376
	9.160654	26.106718	74.664058	25.975924	126.746700
	8.323298	28.177443	72.768016	27.091286	128.036744
	8.865117	26.106718	71.345985	26.135261	123.587964
	8.274041	26.743864	70.713971	26.931949	124.389783
	9.160654	26.266004	71.661992	29.481348	127.409345
	8.421810	26.266004	70.871974	29.003336	126.141315
	8.889745	26.106718	72.452009	27.409961	125.968688
	8.175529	26.584578	72.926020	29.162674	128.673271
	8.963629	29.611021	73.400030	28.365986	131.377037
	8.397182	26.106718	72.294006	27.091286	125.492010
	9.160654	26.106718	71.503988	25.179236	122.789942
	8.323298	26.266004	70.397964	26.135261	122.799229
	9.209910	24.832426	72.452009	24.701224	121.985658
	8.323298	28.655302	70.713971	25.497911	124.867183
	9.012885	23.080275	68.817928	22.470499	114.368702
	8.569579	25.469572	70.871974	25.338573	121.680120
	8.939001	25.150999	70.081957	24.701224	119.934179
	8.668092	24.035993	67.869908	24.541886	116.447787
	8.963629	26.743864	71.819995	25.657249	124.221108
	8.520323	23.239561	68.817928	24.541886	116.599375
	9.111398	28.496015	72.768016	28.525324	129.789355
	8.939001	26.106718	71.187981	26.135261	123.429960
	9.185282	24.195280	70.239960	25.338573	119.773814
	8.766604	24.991712	68.817928	25.975924	119.785564
	9.283795	25.628858	72.136002	26.613274	124.378134
	8.594207	24.673140	71.029978	25.497911	121.201028
	9.456192	24.195280	70.081957	25.338573	119.615810
	8.766604	25.788145	69.291939	24.701224	119.781308
	8.939001	25.947432	71.345985	26.931949	124.225365
	8.692720	25.310286	70.555967	26.294599	122.160851
	8.889745	24.354567	71.029978	23.585861	118.970405
	8.815860	24.991712	72.294006	25.338573	122.624291
	8.914373	28.177443	71.187981	25.816586	125.182010
	8.791232	24.991712	70.397964	27.728636	123.118312
	8.963629	25.310286	70.871974	27.569299	123.751558
	8.791232	27.221723	70.871974	29.481348	127.575046
	8.692720	25.947432	70.081957	28.365986	124.395374
	8.865117	27.858870	72.294006	28.843999	128.996874
	8.569579	25.788145	71.977998	29.322011	127.088155
	8.692720	25.469572	70.713971	26.931949	123.115491
	8.618835	26.584578	71.661992	28.843999	127.090568
	8.741976	24.673140	71.029978	27.091286	122.794403
	8.643463	28.655302	73.716037	27.569299	129.940638
	8.643463	24.354567	69.449943	25.019899	118.824408
	8.200157	26.425291	71.029978	25.975924	123.431192
	8.741976	26.106718	71.819995	25.497911	123.424624
	8.274041	26.106718	71.819995	26.453936	124.380649
	8.815860	26.425291	69.765950	25.657249	121.848489
	7.830735	25.628858	74.032044	26.613274	126.274176
	8.889745	26.266004	71.503988	26.294599	124.064591
	8.077016	25.788145	71.661992	26.294599	123.744735
	8.717348	27.540297	71.503988	26.294599	125.338883
	8.224785	25.469572	71.029978	26.453936	122.953485
	9.234539	24.832426	69.449943	25.338573	119.620942
	8.372554	26.584578	71.819995	26.772611	125.177183
	9.012885	24.991712	72.452009	25.816586	123.260308
	8.372554	27.062437	70.713971	26.294599	124.071006
	8.963629	24.195280	70.397964	25.657249	120.250492
	8.471067	24.673140	69.765950	24.860561	119.299650
	9.209910	25.788145	70.397964	26.135261	122.321370
	8.347926	25.310286	71.503988	27.569299	124.383572
	9.037514	25.628858	71.661992	24.382548	121.673399
	8.717348	23.398847	68.501922	23.585861	115.486630
	8.939001	25.947432	71.503988	26.135261	123.586681
	8.840489	28.336729	73.716037	31.074724	133.127489
	9.259167	27.221723	70.871974	28.365986	126.459684
	9.062142	24.513853	69.291939	27.569299	121.375091
	9.333051	26.584578	73.400030	29.162674	129.147281
	8.471067	26.903150	71.661992	28.206648	126.771791
	9.357679	23.080275	69.449943	24.860561	117.390778
	8.766604	29.133161	71.345985	26.453936	126.933082
	9.111398	25.150999	70.397964	26.613274	122.162236
	8.791232	25.628858	69.765950	25.816586	121.211394
	8.988257	25.628858	72.136002	25.975924	123.740784
	8.372554	26.903150	72.136002	26.453936	125.493088
	8.815860	29.133161	72.926020	27.250623	129.309805
	8.865117	24.354567	71.345985	25.019899	120.720450
	8.323298	26.743864	71.187981	25.975924	123.907769
	9.111398	26.266004	72.136002	25.497911	123.899918
	8.569579	23.876707	71.187981	24.701224	119.765912
	8.815860	29.292448	71.977998	27.569299	128.839745
	8.397182	24.673140	70.713971	25.816586	121.203696
	9.086770	26.903150	72.452009	27.409961	126.765120
	8.372554	25.310286	70.713971	26.294599	122.318855
	8.939001	24.195280	68.343918	25.179236	117.718434
	8.372554	26.106718	73.084023	27.250623	126.441365
	9.209910	26.743864	71.661992	27.728636	126.134492
	8.150901	26.106718	71.187981	26.931949	124.226648
	9.111398	27.221723	72.768016	27.409961	127.399700
	8.249413	28.655302	72.136002	27.250623	128.041927
	8.741976	25.150999	69.607946	25.816586	120.575531
	8.200157	25.947432	73.716037	25.975924	125.639392
	8.914373	25.310286	70.871974	24.701224	120.883483
	8.224785	23.876707	69.607946	24.541886	118.026539
	9.111398	26.425291	70.871974	27.091286	124.388551
	8.372554	22.761702	69.607946	26.931949	119.301596
	9.160654	25.150999	69.765950	27.409961	122.326909
	8.594207	24.513853	71.661992	27.569299	123.745143
	9.185282	24.673140	70.081957	28.365986	123.121082
	8.495695	28.655302	71.503988	27.887974	128.047263
	9.283795	22.920988	70.081957	26.453936	119.456881
	8.668092	26.266004	71.345985	27.887974	125.499962
	8.988257	25.788145	71.819995	26.613274	124.221414
	8.840489	26.425291	76.244093	28.365986	131.035370
	9.086770	26.266004	69.923953	25.338573	121.528531
	8.668092	24.673140	71.819995	25.497911	121.991046
	9.111398	24.354567	70.397964	24.223211	118.975741
	8.865117	26.106718	71.187981	25.657249	122.951948
	9.209910	23.717420	69.449943	25.338573	118.505937
	8.815860	26.425291	72.294006	25.497911	124.217208
	9.209910	26.266004	72.136002	27.569299	125.971305
	8.668092	26.266004	71.819995	26.453936	124.539935
	8.840489	24.991712	71.345985	25.816586	122.154283
	8.791232	27.699583	72.136002	26.772611	126.608196
	8.988257	24.354567	69.449943	26.453936	120.258445
	8.643463	28.655302	75.928086	29.640686	134.224074
	9.382307	26.106718	71.977998	26.453936	124.538652
	8.766604	24.832426	71.345985	26.135261	122.313671
	8.791232	27.062437	70.239960	25.179236	122.481633
	8.840489	24.991712	71.187981	26.453936	122.633630
	8.298670	23.876707	68.817928	24.382548	117.077184
	8.692720	27.699583	74.348051	27.409961	129.457595
	8.101645	24.354567	70.081957	25.179236	119.615759
	8.889745	26.266004	71.029978	24.541886	121.837868
	8.347926	26.106718	71.661992	27.409961	125.178671
	8.914373	26.743864	72.768016	28.365986	127.877866
	7.929248	27.381010	71.345985	30.278036	129.005031
	8.914373	26.266004	70.239960	28.684661	125.190626
	8.397182	22.443129	70.081957	25.975924	118.501009
	8.741976	24.354567	70.081957	27.250623	121.687147
	8.397182	26.584578	71.503988	27.409961	125.498527
	8.914373	25.310286	70.713971	26.931949	122.956205
	8.988257	26.743864	69.923953	25.179236	121.847053
	9.037514	25.628858	74.032044	26.931949	126.592851
	8.865117	25.788145	71.187981	25.497911	122.474037
	9.259167	26.584578	71.819995	26.453936	124.858508
	8.643463	25.947432	71.977998	26.294599	124.220029
	8.889745	29.451735	73.084023	27.250623	129.786381
	8.692720	25.469572	69.449943	24.860561	119.780076
	8.988257	24.832426	72.926020	24.701224	122.459669
	8.791232	28.336729	73.242027	28.206648	129.785404
	8.865117	24.832426	70.555967	25.179236	120.567629
	8.791232	26.743864	70.871974	25.657249	123.273087
	8.889745	22.920988	69.291939	24.860561	117.073488
	8.544951	25.788145	70.555967	27.091286	123.435398
	8.741976	26.425291	73.084023	27.250623	126.759938
	8.791232	25.628858	72.452009	27.728636	125.809504
	8.495695	27.221723	70.555967	26.294599	124.072289
	8.791232	25.469572	71.977998	27.250623	124.698194
	8.421810	25.469572	71.029978	26.135261	122.634811
	8.963629	26.106718	70.081957	26.772611	122.961286
	8.495695	25.469572	71.029978	26.294599	122.794148
	9.136026	25.469572	71.977998	25.816586	123.264156
	8.274041	25.628858	70.871974	25.657249	122.158081
	8.963629	26.903150	72.452009	25.657249	125.012408
	8.372554	25.469572	71.661992	26.135261	123.266825
	8.889745	26.425291	68.659925	24.382548	119.467765
	8.274041	24.991712	70.713971	28.525324	124.231006
	8.939001	26.106718	74.664058	28.843999	129.614775
	8.175529	23.876707	69.449943	26.931949	120.258598
	9.012885	25.469572	71.819995	29.481348	126.770916
	8.274041	27.062437	70.871974	27.569299	125.503710
	8.569579	26.266004	71.819995	28.525324	126.611323
	8.249413	26.584578	70.713971	26.453936	123.752484
	9.012885	25.788145	72.136002	25.179236	123.103383
	8.052388	23.398847	69.923953	24.860561	118.183362
	8.618835	27.540297	72.768016	26.931949	127.240261
	8.175529	25.469572	71.503988	25.497911	122.471471
	8.741976	26.425291	70.871974	26.135261	123.432526
	8.421810	26.425291	72.294006	26.135261	124.854558
	8.963629	25.469572	72.768016	25.975924	124.213512
	8.101645	26.425291	70.555967	25.497911	122.479169
	9.012885	23.558134	72.294006	24.701224	120.553363
	8.027760	27.540297	72.926020	27.728636	128.194952
	8.963629	26.743864	70.713971	26.931949	124.389783
	8.421810	24.673140	71.977998	26.931949	123.583087
	8.840489	26.266004	71.029978	25.657249	122.953230
	8.274041	24.832426	71.029978	26.613274	122.475677
	8.963629	28.336729	73.558034	28.843999	130.738761
	8.397182	25.788145	71.187981	26.772611	123.748737
	9.111398	27.540297	70.713971	26.294599	124.548866
	8.249413	25.310286	71.187981	26.772611	123.270878
	9.259167	25.788145	73.874041	26.294599	125.956784
	8.323298	26.425291	71.503988	27.091286	125.020565
	8.939001	25.310286	72.136002	26.294599	123.740886
	8.495695	27.699583	70.871974	24.382548	122.954106
	8.988257	25.469572	71.187981	26.294599	122.952152
	8.347926	27.381010	71.345985	28.684661	127.411655
	8.741976	25.469572	72.294006	28.206648	125.970226
	8.249413	26.743864	71.029978	29.481348	127.255190
	8.815860	27.062437	71.977998	29.003336	128.043771
	8.446438	25.947432	72.136002	29.640686	127.724120
	8.741976	24.832426	69.449943	25.816586	120.098955
	8.347926	25.628858	69.449943	26.931949	122.010750
	9.012885	30.088881	73.084023	27.728636	130.901540
	8.347926	24.673140	71.029978	25.179236	120.882353
	8.889745	26.584578	72.136002	25.975924	124.696503
	8.865117	27.062437	72.294006	26.294599	125.651041
	8.668092	28.655302	72.610012	28.047311	129.312625
	8.840489	28.655302	71.345985	27.728636	127.729922
	9.012885	25.628858	73.242027	26.453936	125.324821
	8.963629	25.469572	71.029978	26.135261	122.634811
	9.062142	25.469572	70.871974	25.816586	122.158132
	9.209910	27.381010	72.768016	27.250623	127.399650
	8.963629	27.699583	70.397964	25.975924	124.073470
	9.185282	24.513853	70.239960	25.657249	120.411062
	8.889745	25.310286	73.558034	26.135261	125.003580
	9.283795	26.266004	70.397964	26.613274	123.277242
	8.988257	25.947432	71.503988	26.931949	124.383368
	9.209910	28.177443	71.977998	27.091286	127.246727
	8.865117	27.858870	73.874041	29.322011	131.054921
	9.111398	24.673140	69.133936	25.338573	119.145649
	8.988257	26.743864	72.768016	26.931949	126.443829
	9.037514	24.673140	69.607946	25.816586	120.097672
	8.914373	27.062437	71.819995	26.135261	125.017693
	9.456192	26.425291	71.661992	25.816586	123.903869
	8.963629	28.018156	73.400030	27.250623	128.668809
	9.111398	25.469572	69.765950	27.409961	122.645482
	8.865117	28.018156	71.187981	27.728636	126.934773
	9.480820	22.920988	69.923953	26.931949	119.776890
	8.766604	28.814589	73.716037	30.915386	133.446011
	9.308423	27.062437	72.294006	28.365986	127.722429
	8.840489	25.788145	71.819995	28.365986	125.974126
	9.136026	28.814589	70.555967	26.135261	125.505817
	8.939001	25.628858	72.294006	26.772611	124.695475
	9.283795	25.628858	71.819995	24.860561	122.309415
	8.692720	26.106718	71.187981	25.497911	122.792610
	9.333051	25.310286	70.871974	27.250623	123.432883
	8.939001	27.858870	72.294006	25.975924	126.128799
	9.160654	26.266004	70.239960	26.135261	122.641226
	8.618835	29.451735	73.558034	27.091286	130.101054
	9.800986	28.496015	73.084023	27.569299	129.149337
	8.594207	25.310286	71.819995	26.453936	123.584217
	9.185282	28.018156	71.345985	25.975924	125.340064
	8.692720	25.469572	70.713971	25.816586	122.000129
	9.111398	26.584578	70.081957	26.453936	123.120470
	8.766604	26.425291	72.768016	26.453936	125.647243
	9.160654	26.106718	70.713971	27.250623	124.071312
	8.397182	24.354567	68.975932	24.223211	117.553710
	9.283795	26.743864	72.768016	27.409961	126.921841
	8.520323	25.628858	70.555967	25.338573	121.523399
	8.939001	25.788145	69.607946	25.975924	121.372015
	8.298670	28.177443	71.187981	25.975924	125.341347
	9.136026	26.584578	72.926020	27.091286	126.601883
	8.323298	26.584578	71.503988	26.772611	124.861177
	9.086770	27.221723	71.819995	25.338573	124.380292
	8.397182	27.540297	73.084023	26.931949	127.556268
	9.062142	28.973875	71.819995	26.453936	127.247806
	8.372554	27.699583	74.506055	29.481348	131.686986
	9.111398	26.903150	73.874041	27.569299	128.346490
	8.397182	26.743864	72.294006	29.162674	128.200543
	8.988257	25.628858	72.294006	29.481348	127.404212
	8.618835	29.929594	74.190048	30.756049	134.875690
	9.185282	28.177443	72.926020	30.437373	131.540836
	8.569579	29.611021	73.716037	29.959361	133.286419
	8.939001	26.743864	73.558034	26.453936	126.755834
	8.815860	27.381010	70.239960	24.701224	122.322194
	8.840489	27.381010	73.716037	27.887974	128.985021
	8.914373	26.743864	72.294006	25.657249	124.695118
	9.012885	26.106718	71.187981	25.497911	122.792610
	8.594207	25.150999	69.923953	25.657249	120.732201
	9.086770	28.496015	73.400030	24.701224	126.597269
	8.717348	25.628858	70.871974	26.135261	122.636094
	9.111398	26.106718	70.871974	25.816586	122.795278
	8.741976	27.540297	72.610012	27.091286	127.241595
	8.840489	26.266004	71.187981	27.091286	124.545272
	8.766604	26.743864	69.765950	25.497911	122.007725
	8.963629	24.354567	71.819995	25.657249	121.831810
	8.594207	24.195280	69.291939	24.541886	118.029105
	9.086770	24.195280	68.817928	23.745199	116.758407
	8.914373	25.947432	71.187981	26.294599	123.430011
	8.815860	29.292448	71.029978	26.294599	126.617024
	8.692720	24.354567	69.449943	25.179236	118.983745
	8.889745	26.106718	74.348051	25.975924	126.430692
	8.668092	26.903150	71.661992	26.453936	125.019078
	8.668092	27.062437	71.819995	24.860561	123.742993
	8.988257	25.947432	71.503988	24.860561	122.311981
	9.136026	26.903150	69.923953	24.382548	121.209652
	9.037514	25.628858	69.607946	25.657249	120.894053
	8.889745	26.584578	72.926020	27.728636	127.239233
	9.111398	28.018156	69.765950	27.250623	125.034729
	8.939001	26.425291	71.661992	28.525324	126.612606
	9.185282	27.540297	72.768016	29.640686	129.948999
	9.012885	26.903150	71.819995	26.931949	125.655094
	8.889745	26.743864	70.239960	27.728636	124.712460
	8.840489	25.628858	68.817928	23.426524	117.873311
	9.382307	24.035993	70.871974	23.904536	118.812504
	8.914373	29.133161	73.558034	27.250623	129.941819
	9.480820	26.743864	71.977998	25.816586	124.538449
	8.840489	25.310286	71.661992	25.657249	122.629526
	9.357679	27.699583	70.555967	25.816586	124.072136
	8.988257	25.947432	73.084023	25.975924	125.007378
	9.480820	28.018156	71.661992	26.931949	126.612096
	8.889745	26.743864	71.661992	26.613274	125.019129
	9.776358	28.814589	74.348051	28.525324	131.687963
	8.766604	26.584578	70.239960	25.179236	122.003774
	9.530076	25.469572	70.239960	25.816586	121.526118
	8.815860	28.336729	75.928086	27.728636	131.993451
	9.357679	25.788145	70.871974	25.657249	122.317368
	8.791232	26.903150	71.977998	26.931949	125.813097
	9.308423	24.832426	70.871974	25.338573	121.042974
	8.889745	26.584578	71.661992	26.453936	124.700505
	9.480820	26.106718	70.081957	26.135261	122.323936
	8.815860	26.106718	72.294006	26.294599	124.695322
	9.530076	28.496015	72.926020	26.453936	127.875971
	8.520323	26.106718	71.661992	25.497911	123.266621
	9.456192	27.858870	72.610012	26.135261	126.604143
	8.544951	26.584578	71.819995	25.338573	123.743146
	9.209910	23.717420	69.765950	27.250623	120.733994
	8.544951	28.496015	71.977998	29.481348	129.955363
	9.406936	23.558134	70.081957	26.294599	119.934689
	8.840489	28.336729	72.926020	30.437373	131.700122
	9.185282	26.266004	71.187981	27.250623	124.704609
	8.741976	27.062437	72.136002	27.728636	126.927075
	9.283795	27.858870	72.926020	28.206648	128.991537
	8.569579	27.540297	75.138069	29.800024	132.478389
	9.283795	25.788145	72.452009	24.541886	122.782040
	8.594207	26.903150	71.345985	25.975924	124.225058
	9.283795	27.062437	72.294006	26.135261	125.491704
	8.594207	26.425291	71.661992	24.860561	122.947844
	9.283795	29.133161	73.084023	28.365986	130.583170
	8.594207	27.858870	72.926020	26.772611	127.557500
	9.357679	27.381010	72.610012	25.975924	125.966946
	8.668092	28.336729	71.819995	26.453936	126.610660
	9.086770	25.947432	71.503988	25.497911	122.949331
	8.471067	26.903150	71.345985	25.975924	124.225058
	9.160654	26.266004	70.397964	25.497911	122.161879
	8.618835	28.655302	75.612079	28.684661	132.952042
	9.160654	30.248167	72.136002	26.931949	129.316118
	8.471067	27.699583	72.452009	27.569299	127.720891
	8.939001	22.920988	67.869908	22.311161	113.102057
	8.692720	29.929594	75.296072	29.800024	135.025690
	9.825614	27.221723	72.294006	27.091286	126.607015
	8.594207	28.655302	71.819995	27.409961	127.885258
	9.086770	27.381010	73.716037	26.772611	127.869658
	8.668092	29.611021	73.242027	28.206648	131.059696
	8.988257	28.177443	73.084023	25.975924	127.237389
	8.495695	27.540297	72.294006	25.179236	125.013538
	9.431564	26.903150	71.345985	26.453936	124.703071
	8.544951	27.381010	71.503988	28.365986	127.250984
	9.062142	27.540297	75.928086	28.047311	131.515694
	8.939001	27.062437	72.136002	29.003336	128.201775
	9.259167	31.203886	74.980065	31.552736	137.736687
	9.259167	25.628858	71.819995	27.887974	125.336827
	9.308423	28.336729	70.397964	25.497911	124.232604
	9.062142	26.903150	71.187981	26.294599	124.385730
	9.209910	24.832426	72.926020	25.019899	122.778344
	9.333051	28.814589	71.819995	26.453936	127.088520
	8.914373	26.903150	72.768016	26.931949	126.603115
	9.456192	26.106718	71.187981	24.860561	122.155260
	9.160654	27.221723	72.452009	26.453936	126.127668
	9.431564	26.743864	70.081957	25.816586	122.642407
	8.963629	27.540297	74.190048	26.931949	128.662293
	9.431564	23.080275	68.817928	23.107848	115.006051
	8.988257	26.584578	71.977998	25.975924	124.538500
	9.505448	27.540297	72.452009	26.613274	126.605579
	8.692720	24.195280	69.923953	25.019899	119.139132
	9.062142	29.770307	73.084023	29.162674	132.017004
	8.274041	25.150999	72.294006	25.816586	123.261591
	9.357679	27.062437	71.345985	26.931949	125.340370
	8.495695	26.903150	72.294006	26.613274	125.810430
	9.062142	26.903150	71.977998	25.816586	124.697735
	8.717348	25.628858	70.713971	25.816586	122.159415
	9.283795	26.743864	70.713971	26.294599	123.752433
	8.544951	25.310286	73.558034	24.860561	123.728880
	9.111398	27.221723	72.136002	26.772611	126.130336
	8.520323	29.133161	71.345985	25.497911	125.977057
	9.062142	26.743864	72.610012	25.816586	125.170462
	8.495695	27.540297	72.294006	25.975924	125.810226
	9.209910	28.018156	72.136002	26.453936	126.608094
	8.692720	27.699583	74.190048	27.569299	129.458929
	9.357679	30.088881	72.294006	29.003336	131.386222
	8.717348	26.743864	72.452009	29.640686	128.836559
	9.357679	27.221723	72.768016	28.684661	128.674400
	8.618835	28.973875	74.348051	29.640686	132.962612
	9.234539	26.106718	70.239960	27.409961	123.756639
	8.766604	25.628858	70.397964	25.497911	121.524733
	9.111398	24.991712	71.187981	24.701224	120.880917
	8.569579	27.062437	72.452009	26.135261	125.649707
	8.914373	25.788145	70.871974	24.223211	120.883330
	8.865117	31.522459	75.138069	28.525324	135.185851
	8.643463	26.425291	72.136002	26.613274	125.174567
	8.569579	26.903150	73.242027	26.453936	126.599113
	8.741976	27.381010	73.558034	26.294599	127.233642
	9.283795	25.788145	71.977998	26.931949	124.698092
	9.136026	29.770307	73.716037	28.365986	131.852330
	8.692720	25.310286	71.661992	25.975924	122.948201
	9.209910	26.903150	71.819995	26.294599	125.017744
	8.618835	26.425291	70.555967	26.613274	123.594532
	9.136026	27.540297	73.558034	27.091286	128.189616
	8.988257	27.381010	71.503988	26.294599	125.179597
	8.963629	24.673140	70.713971	25.497911	120.885021
	9.283795	26.743864	71.977998	26.294599	125.016461
	8.939001	25.788145	70.397964	25.019899	121.206007
	9.209910	25.310286	73.084023	26.453936	124.848245
	9.037514	28.973875	72.768016	26.931949	128.673840
	9.037514	25.628858	70.871974	25.019899	121.520731
	8.939001	26.584578	71.819995	26.135261	124.539834
	9.209910	24.832426	70.397964	23.585861	118.816250
	8.988257	27.381010	70.397964	25.338573	123.117547
	9.406936	27.062437	71.661992	24.860561	123.584990
	9.111398	26.903150	72.610012	27.887974	127.401136
	9.480820	27.062437	71.345985	28.525324	126.933745
	8.939001	26.584578	72.768016	28.684661	128.037255
	9.209910	29.451735	72.136002	27.569299	129.157035
	8.939001	27.381010	72.768016	27.887974	128.037000
	9.505448	27.221723	71.503988	26.613274	125.338985
	9.283795	26.106718	74.506055	24.701224	125.313996
	9.382307	27.221723	72.452009	26.772611	126.446343
	9.086770	26.584578	70.081957	23.585861	120.252395
	9.530076	28.018156	73.400030	27.250623	128.668809
	8.914373	27.381010	71.819995	26.135261	125.336266
	9.530076	25.150999	68.343918	24.223211	117.718128
	9.012885	27.381010	74.190048	27.091286	128.662344
	9.308423	26.266004	70.397964	26.135261	122.799229
	8.889745	27.699583	72.452009	27.409961	127.561553
	9.480820	26.743864	71.661992	26.135261	124.541117
	9.111398	25.310286	70.871974	25.338573	121.520833
	9.037514	28.655302	70.397964	26.135261	125.188527
	9.308423	25.628858	75.138069	26.294599	127.061526
	9.259167	26.425291	71.503988	26.453936	124.383215
	9.209910	25.469572	70.555967	24.860561	120.886100
	9.283795	27.062437	72.136002	26.772611	125.971050
	9.111398	28.336729	71.661992	26.772611	126.771332
	9.185282	26.106718	70.239960	25.657249	122.003927
	9.111398	26.903150	73.084023	26.772611	126.759784
	9.283795	26.584578	71.503988	26.294599	124.383164
	8.914373	28.496015	73.874041	27.091286	129.461342
	9.209910	28.973875	72.926020	25.975924	127.875818
	9.037514	25.469572	71.503988	25.179236	122.152796
	9.111398	25.628858	68.659925	25.497911	119.786695
	9.086770	29.133161	76.086090	29.800024	135.019275
	9.308423	24.991712	71.187981	28.365986	124.545680
	9.037514	27.699583	72.136002	31.552736	131.388321
	9.653217	26.743864	72.136002	27.409961	126.289827
	9.185282	28.336729	72.294006	27.569299	128.200033
	9.136026	30.088881	74.348051	29.322011	133.758942
	8.840489	27.540297	71.977998	23.745199	123.263493
	9.333051	21.965269	68.343918	21.833149	112.142336
	8.865117	27.221723	72.294006	25.816586	125.332315
	9.086770	26.743864	74.190048	25.179236	126.113148
	8.889745	25.788145	71.977998	25.338573	123.104717
	8.914373	31.044600	72.452009	27.728636	131.225245
	9.062142	27.221723	71.503988	26.772611	125.498323
	9.160654	26.743864	72.768016	25.975924	125.487804
	9.111398	26.425291	70.871974	25.338573	122.635839
	9.209910	26.425291	71.977998	26.294599	124.697888
	9.480820	28.814589	72.294006	26.772611	127.881205
	9.062142	26.425291	71.661992	26.772611	124.859894
	9.111398	27.858870	73.874041	27.091286	128.824196
	9.062142	28.496015	72.768016	28.047311	129.311342
	8.914373	25.628858	72.452009	27.091286	125.172154
	8.988257	30.088881	72.926020	27.728636	130.743536
	8.889745	24.673140	70.871974	25.338573	120.883687
	8.914373	27.381010	69.607946	26.294599	123.283555
	9.037514	26.903150	74.190048	26.453936	127.547134
	8.963629	25.788145	70.713971	25.657249	122.159364
	8.963629	26.903150	71.029978	25.179236	123.112364
	8.766604	27.699583	73.558034	26.294599	127.552215
	9.283795	27.062437	71.503988	25.019899	123.586324
	8.766604	26.743864	70.871974	25.179236	122.795074
	9.382307	30.566740	75.454076	29.640686	135.661502
	9.136026	26.106718	73.874041	28.206648	128.187407
	9.209910	25.469572	70.239960	26.772611	122.482143
	9.209910	27.699583	72.452009	28.843999	128.995591
	9.406936	27.381010	72.610012	27.409961	127.400983
	9.357679	27.858870	70.555967	26.453936	124.868773
	9.062142	24.832426	69.449943	24.701224	118.983592
	9.234539	25.947432	71.819995	24.541886	122.309313
	8.914373	28.177443	72.452009	25.816586	126.446038
	9.234539	25.310286	72.452009	25.497911	123.260206
	9.111398	28.018156	72.452009	25.657249	126.127414
	9.234539	28.018156	72.768016	27.091286	127.877458
	9.136026	27.858870	71.503988	26.772611	126.135469
	9.382307	25.310286	73.558034	24.382548	123.250868
	9.382307	29.292448	72.768016	26.294599	128.355063
	9.406936	26.425291	72.452009	27.091286	125.968586
	9.037514	25.788145	71.029978	25.179236	121.997359
	9.456192	27.221723	71.977998	26.294599	125.494321
	9.086770	27.062437	71.187981	26.931949	125.182367
	9.456192	30.088881	73.400030	26.453936	129.942847
	9.308423	25.150999	69.607946	24.701224	119.460168
	9.382307	28.177443	73.084023	27.569299	128.830764
	9.308423	26.903150	72.136002	25.816586	124.855739
	9.480820	25.947432	70.713971	25.975924	122.637326
	9.234539	29.292448	72.294006	26.931949	128.518402
	9.357679	25.150999	74.190048	25.657249	124.998295
	9.160654	28.018156	72.768016	26.613274	127.399445
	9.603961	27.381010	72.610012	26.294599	126.285621
	9.283795	26.106718	71.819995	24.541886	122.468599
	9.727101	30.407453	71.187981	25.019899	126.615333
	9.554704	27.221723	71.503988	26.453936	125.179648
	9.554704	26.903150	73.400030	28.684661	128.987842
	8.988257	29.133161	73.084023	30.596711	132.813896
	9.209910	29.292448	73.716037	29.003336	132.011821
	9.308423	27.540297	73.874041	28.843999	130.258336
	9.456192	27.540297	73.084023	27.409961	128.034281
	9.283795	27.540297	70.871974	26.453936	124.866207
	9.530076	27.062437	73.716037	25.816586	126.595060
	9.825614	29.133161	71.503988	24.701224	125.338373
	9.406936	26.903150	72.926020	25.816586	125.645756
	9.333051	26.425291	71.661992	24.860561	122.947844
	9.579332	27.540297	72.136002	26.135261	125.811560
	9.086770	26.584578	71.661992	25.657249	123.903818
	9.259167	28.177443	73.558034	26.294599	128.030075
	9.209910	27.858870	74.822062	27.409961	130.090892
	9.530076	27.062437	71.819995	26.135261	125.017693
	8.815860	26.584578	71.977998	26.135261	124.697837
	9.283795	23.876707	71.187981	25.338573	120.403261
	9.086770	28.655302	71.819995	26.931949	127.407246
	9.308423	26.743864	74.190048	26.135261	127.069173
	8.569579	28.018156	72.768016	26.772611	127.558783
	9.431564	27.062437	72.136002	25.657249	124.855688
	8.815860	27.699583	73.400030	27.409961	128.509574
	9.554704	29.451735	72.610012	26.931949	128.993696
	8.963629	24.673140	69.449943	24.382548	118.505631
	9.185282	26.266004	72.768016	24.860561	123.894582
	8.815860	26.425291	70.555967	25.179236	122.160494
	9.333051	27.540297	70.397964	22.948511	120.886771
	8.397182	27.062437	72.294006	25.657249	125.013691
	9.357679	25.788145	70.871974	24.382548	121.042668
	8.618835	27.540297	71.187981	27.728636	126.456914
	9.160654	26.903150	71.345985	27.409961	125.659096
	8.741976	28.973875	73.400030	28.365986	130.739891
	9.333051	23.876707	69.607946	25.657249	119.141901
	8.471067	28.655302	73.084023	26.453936	128.193261
	9.456192	25.788145	71.187981	24.860561	121.836687
	8.471067	27.858870	73.084023	26.294599	127.237491
	9.308423	28.496015	72.768016	25.975924	127.239955
	8.668092	25.947432	74.980065	24.382548	125.310045
	9.209910	28.336729	72.610012	26.135261	127.082003
	8.643463	25.150999	70.081957	23.267186	118.500142
	9.209910	28.814589	72.926020	25.497911	127.238519
	8.643463	26.425291	72.452009	26.294599	125.171899
	9.086770	27.381010	71.503988	26.772611	125.657609
	8.618835	28.336729	74.506055	26.931949	129.774732
	9.136026	28.814589	73.874041	27.887974	130.576603
	8.914373	29.292448	71.661992	25.975924	126.930363
	9.333051	28.655302	74.822062	28.525324	132.002687
	8.618835	25.469572	69.923953	25.019899	120.413424
	9.209910	27.699583	72.294006	26.772611	126.766200
	8.544951	27.062437	74.190048	26.294599	127.547083
	9.259167	28.018156	71.503988	25.816586	125.338730
	8.569579	25.947432	72.452009	26.453936	124.853376
	9.086770	27.540297	73.716037	27.091286	128.347620
	8.544951	26.743864	70.397964	25.975924	123.117751
	9.111398	27.540297	72.926020	26.772611	127.238927
	8.495695	30.407453	73.558034	26.294599	130.260086
	9.086770	26.106718	71.661992	25.497911	123.266621
	8.471067	25.788145	71.661992	23.426524	120.876660
	9.062142	26.425291	72.136002	24.541886	123.103179
	8.495695	25.469572	71.187981	25.019899	121.677452
	9.136026	29.292448	73.242027	29.322011	131.856486
	8.323298	25.310286	73.874041	27.250623	126.434950
	9.185282	27.540297	72.294006	27.728636	127.562938
	8.594207	26.106718	71.661992	26.931949	124.700658
	9.259167	29.770307	72.768016	26.772611	129.310935
	8.618835	25.628858	71.187981	25.657249	122.474088
	9.062142	26.106718	70.713971	24.541886	121.362575
	8.520323	27.381010	74.032044	25.497911	126.910965
	9.136026	27.221723	71.503988	25.179236	123.904948
	8.569579	28.496015	71.819995	25.497911	125.813922
	9.111398	26.425291	74.506055	25.657249	126.588594
	8.865117	27.062437	72.452009	25.657249	125.171695
	9.062142	28.018156	71.503988	26.613274	126.135418
	8.815860	26.106718	71.819995	26.294599	124.221312
	9.283795	27.381010	73.874041	26.453936	127.708987
	9.111398	26.266004	72.452009	26.294599	125.012612
	8.963629	26.425291	72.136002	25.816586	124.377879
	9.185282	28.336729	73.716037	27.409961	129.462727
	8.914373	27.699583	70.397964	25.497911	123.595458
	9.037514	26.266004	72.768016	25.975924	125.009944
	9.308423	26.903150	72.768016	25.816586	125.487752
	9.012885	27.381010	72.452009	26.294599	126.127618
	9.037514	27.699583	73.242027	26.772611	127.714221
	9.234539	30.088881	74.348051	28.365986	132.802918
	9.136026	26.266004	70.397964	25.816586	122.480554
	9.234539	26.743864	74.348051	26.135261	127.227176
	9.086770	28.018156	72.926020	25.975924	126.920099
	9.012885	27.381010	73.084023	25.657249	126.122282
	9.234539	29.292448	73.558034	25.497911	128.348393
	9.185282	25.310286	71.977998	25.179236	122.467520
	9.160654	26.903150	70.871974	25.657249	123.432373
	9.160654	26.584578	72.926020	27.250623	126.761221
	9.062142	28.655302	72.768016	29.162674	130.585992
	9.357679	27.699583	70.397964	25.816586	123.914133
	9.259167	27.062437	73.716037	29.003336	129.781810
	9.160654	28.018156	73.400030	27.250623	128.668809
	9.012885	24.673140	68.343918	24.382548	117.399606
	9.677845	27.699583	73.084023	26.613274	127.396880
	9.037514	28.336729	72.926020	25.657249	126.919997
	9.406936	26.266004	71.819995	24.701224	122.787223
	9.259167	28.814589	73.874041	26.931949	129.620577
	9.308423	27.540297	72.294006	25.338573	125.172876
	9.136026	28.336729	72.610012	26.453936	127.400678
	9.406936	26.425291	72.610012	25.657249	124.692552
	9.111398	26.266004	73.874041	25.657249	125.797293
	9.628589	27.381010	72.136002	26.135261	125.652273
	8.939001	27.381010	72.768016	26.453936	126.602962
	9.456192	29.133161	72.768016	26.453936	128.355114
	9.234539	26.903150	72.610012	27.250623	126.763786
	9.185282	28.655302	72.926020	27.728636	129.309957
	8.889745	25.310286	71.819995	24.063874	121.194154
	9.086770	27.699583	73.874041	28.206648	129.780272
	8.643463	29.292448	73.558034	27.250623	130.101105
	9.209910	27.221723	73.716037	25.975924	126.913684
	8.865117	28.336729	73.874041	26.613274	128.824043
	9.456192	26.266004	69.765950	23.745199	119.777152
	8.668092	28.814589	74.822062	25.497911	129.134561
	9.333051	26.743864	71.977998	25.657249	124.379111
	8.717348	27.540297	73.084023	28.684661	129.308981
	9.259167	25.947432	71.503988	25.816586	123.268006
	9.037514	26.584578	71.661992	27.569299	125.815868
	8.963629	28.018156	71.819995	28.525324	128.363475
	8.988257	26.903150	74.348051	28.206648	129.457850
	9.406936	25.628858	71.029978	26.772611	123.431447
	9.357679	26.425291	72.136002	26.931949	125.493242
	8.988257	26.584578	72.768016	27.728636	127.081230
	9.456192	27.699583	71.503988	25.338573	124.542145
	9.382307	25.150999	72.294006	25.497911	122.942916
	9.259167	26.266004	74.032044	24.701224	124.999272
	8.865117	27.381010	72.452009	25.338573	125.171593
	9.406936	25.469572	71.661992	24.223211	121.354775
	8.914373	30.248167	72.768016	25.338573	128.354757
	9.653217	26.425291	71.977998	25.657249	124.060538
	9.111398	26.425291	70.713971	24.860561	121.999823
	9.653217	26.425291	73.242027	25.497911	125.165229
	8.766604	27.062437	73.874041	26.294599	127.231076
	9.283795	26.266004	71.345985	25.179236	122.791225
	8.668092	24.832426	71.503988	24.701224	121.037638
	9.333051	26.266004	71.503988	25.338573	123.108566
	8.495695	26.584578	70.713971	25.497911	122.796459
	9.037514	30.088881	76.718104	28.206648	135.013633
	8.594207	24.991712	71.029978	24.541886	120.563576
	9.037514	25.788145	70.713971	24.223211	120.725327
	8.446438	27.540297	73.084023	26.135261	126.759581
	9.209910	29.929594	75.612079	27.887974	133.429646
	8.717348	30.407453	73.716037	27.091286	131.214776
	9.086770	26.743864	73.874041	24.701224	125.319128
	8.791232	28.336729	75.138069	26.772611	130.247409
	8.939001	28.336729	74.506055	28.365986	131.208770
	8.840489	26.106718	73.084023	29.640686	128.831427
	9.111398	26.743864	71.503988	26.135261	124.383113
	8.791232	25.469572	71.029978	28.047311	124.546861
	9.209910	26.584578	71.029978	27.887974	125.502528
	8.963629	27.381010	73.874041	27.887974	129.143024
	9.062142	28.177443	73.874041	28.843999	130.895482
	9.111398	28.177443	72.926020	26.772611	127.876073
	9.086770	26.584578	72.452009	26.772611	125.809197
	9.357679	25.150999	69.291939	23.426524	117.869462
	9.037514	26.584578	73.874041	24.860561	125.319179
	9.603961	24.832426	70.871974	24.382548	120.086949
	9.160654	28.177443	72.294006	24.860561	125.332009
	9.480820	25.947432	72.294006	24.063874	122.305311
	9.062142	27.381010	72.610012	25.179236	125.170259
	9.185282	28.973875	72.294006	27.409961	128.677842
	9.062142	28.655302	74.348051	26.294599	129.297952
	9.530076	25.628858	72.610012	25.019899	123.258769
	8.692720	27.540297	72.926020	26.931949	127.398265
	9.333051	24.991712	70.397964	23.904536	119.294212
	8.791232	26.743864	72.452009	26.453936	125.649809
	9.554704	29.611021	70.871974	25.657249	126.140244
	8.717348	24.991712	71.977998	25.019899	121.989610
	9.283795	27.221723	73.242027	26.135261	126.599011
	8.471067	27.540297	72.926020	26.772611	127.238927
	9.431564	25.310286	71.345985	24.223211	120.879481
	8.643463	28.496015	73.084023	26.931949	128.511987
	9.012885	28.814589	74.506055	27.091286	130.411929
	8.471067	29.133161	73.084023	26.931949	129.149133
	9.308423	26.743864	73.558034	23.904536	124.206434
	8.717348	29.451735	74.664058	28.525324	132.641116
	9.062142	26.266004	73.084023	26.772611	126.122638
	9.111398	26.584578	72.926020	28.206648	127.717246
	9.062142	28.018156	73.084023	28.843999	129.946178
	8.963629	26.743864	70.871974	27.728636	125.344474
	9.111398	28.018156	73.874041	27.409961	129.302158
	9.086770	26.903150	73.084023	26.772611	126.759784
	9.111398	29.133161	74.348051	27.728636	131.209848
	9.530076	26.743864	72.610012	24.860561	124.214438
	8.865117	26.266004	72.926020	25.816586	125.008610
	9.406936	27.381010	71.029978	24.382548	122.793536
	8.963629	27.221723	74.506055	25.816586	127.544364
	9.308423	26.903150	71.345985	24.701224	122.950358
	8.791232	26.903150	72.294006	25.019899	124.217055
	9.333051	26.425291	73.084023	25.019899	124.529212
	8.643463	27.699583	71.029978	24.701224	123.430784
	9.160654	25.310286	71.661992	25.019899	121.992176
	8.618835	26.743864	74.980065	25.497911	127.221840
	9.259167	27.540297	71.819995	25.657249	125.017540
	8.471067	26.425291	73.558034	26.772611	126.755936
	9.431564	28.496015	73.400030	27.091286	128.987332
	8.421810	26.903150	72.768016	26.453936	126.125102
	9.234539	26.584578	71.345985	25.657249	123.587811
	8.840489	26.584578	73.558034	25.816586	125.959197
	9.456192	28.177443	71.345985	25.657249	125.180676
	8.298670	26.425291	73.084023	26.294599	125.803913
	8.791232	27.221723	72.768016	25.657249	125.646988
	8.446438	27.858870	73.874041	25.975924	127.708833
	9.259167	25.310286	70.871974	24.223211	120.405471
	8.643463	29.770307	73.242027	25.497911	128.510245
	9.136026	25.628858	72.768016	25.975924	124.372798
	8.446438	26.106718	71.029978	27.091286	124.227981
	9.062142	26.266004	72.294006	27.250623	125.810634
	8.692720	26.903150	71.819995	26.453936	125.177081
	9.185282	26.266004	71.661992	27.728636	125.656632
	8.692720	26.584578	73.084023	26.772611	126.441211
	9.160654	27.062437	75.296072	27.091286	129.449795
	8.421810	27.381010	72.452009	26.453936	126.286955
	9.259167	26.266004	71.345985	24.701224	122.313212
	8.668092	26.743864	72.768016	25.179236	124.691116
	9.086770	26.903150	71.345985	25.497911	123.747046
	8.692720	24.354567	69.765950	22.470499	116.591015
	9.185282	28.973875	74.348051	26.453936	129.775862
	8.865117	29.929594	74.190048	26.931949	131.051590
	9.111398	24.832426	71.187981	23.745199	119.765606
	8.323298	25.788145	71.661992	24.701224	122.151360
	9.012885	28.177443	72.768016	26.453936	127.399394
	8.815860	29.929594	77.034110	28.684661	135.648366
	9.062142	29.451735	70.871974	27.409961	127.733670
	8.741976	26.106718	72.294006	25.657249	124.057972
	9.012885	26.743864	72.452009	26.135261	125.331134
	8.865117	27.062437	72.926020	26.453936	126.442393
	8.939001	25.788145	70.871974	25.179236	121.839355
	8.815860	29.451735	72.926020	27.887974	130.265728
	8.939001	27.381010	74.506055	27.091286	128.978351
	8.939001	26.743864	71.819995	25.975924	124.539783
	8.741976	28.655302	74.348051	27.569299	130.572652
	8.988257	27.858870	72.452009	24.382548	124.693427
	8.815860	25.310286	70.871974	23.585861	119.768121
	9.209910	25.150999	69.765950	23.267186	118.184134
	9.037514	29.133161	77.824128	28.047311	135.004601
	9.357679	26.903150	72.294006	26.931949	126.129105
	8.815860	28.018156	72.452009	28.047311	128.517476
	9.456192	24.035993	71.345985	26.931949	122.313927
	8.815860	26.425291	71.819995	26.613274	124.858560
	9.406936	25.788145	70.397964	25.975924	122.162032
	8.717348	24.832426	73.558034	25.657249	124.047708
	9.259167	25.788145	69.607946	23.904536	119.300627
	8.446438	26.266004	72.610012	25.497911	124.373928
	9.283795	26.584578	73.242027	25.338573	125.165177
	8.274041	28.336729	73.716037	26.772611	128.825377
	8.939001	25.469572	72.136002	24.541886	122.147460
	8.298670	28.018156	75.928086	25.019899	128.966141
	8.889745	26.106718	72.768016	25.338573	124.213307
	8.520323	28.655302	73.716037	26.613274	128.984612
	8.889745	28.177443	74.190048	27.250623	129.618113
	8.347926	26.266004	73.084023	27.091286	126.441314
	9.111398	26.903150	71.029978	25.975924	123.909052
	8.495695	27.062437	74.822062	27.250623	129.135122
	9.012885	27.540297	72.610012	27.091286	127.241595
	8.520323	25.469572	71.661992	25.179236	122.310800
	8.914373	28.336729	73.558034	26.294599	128.189361
	8.569579	24.991712	72.294006	25.975924	123.261641
	9.111398	25.469572	69.765950	24.860561	120.096083
	8.865117	26.584578	72.926020	25.657249	125.167846
	8.939001	23.558134	72.768016	24.701224	121.027374
	8.815860	28.018156	72.610012	26.135261	126.763429
	9.357679	26.106718	73.084023	25.657249	124.847990
	8.840489	28.814589	74.506055	27.091286	130.411929
	9.062142	25.628858	70.871974	23.585861	120.086693
	8.741976	28.336729	74.822062	27.887974	131.046764
	9.136026	22.283842	69.923953	23.745199	115.952994
	9.062142	31.203886	74.664058	29.800024	135.667968
	9.086770	28.336729	74.190048	29.481348	132.008125
