LabVIEW Measurement	
Writer_Version	2
Reader_Version	2
Separator	Tab
Decimal_Separator	.
Multi_Headings	No
X_Columns	No
Time_Pref	Absolute
Operator	lvuser
Date	2021/05/25
Time	15:14:38.519700762
***End_of_Header***	
	
Channels	5					
Samples	2000	2000	2000	2000	2000	
Date	2021/05/25	2021/05/25	2021/05/25	2021/05/25	2021/05/25	
Time	15:14:38.5197008120585883856	15:14:38.519700762	15:14:38.519700762	15:14:38.519700762	15:14:38.519700762	
Y_Unit_Label	Volts	Volts	Volts	Volts	Volts	
X_Dimension	Time	Time	Time	Time	Time	
X0	0.0000000000000000E+0	0.0000000000000000E+0	0.0000000000000000E+0	0.0000000000000000E+0	0.0000000000000000E+0	
Delta_X	0.001000	0.001000	0.001000	0.001000	0.001000	
***End_of_Header***						
X_Value	cisnienieKomoraGorna	sila1	sila2	sila3	sila1 1	Comment
	1.698330	-1.290560	39.429278	5.262049	43.400766	Masa: 0.00 [kg]\09Pozycja Y 5.00 [m]\09Pozycja Z 2.71 [m]\0A
	1.575190	-7.024874	37.533236	-0.633439	29.874923
	1.649074	-4.317003	41.641327	2.393974	39.718297
	1.476677	-5.113436	40.061292	1.756624	36.704479
	1.698330	-4.157717	41.009313	2.393974	39.245569
	1.747587	-3.520571	40.061292	1.437949	37.978669
	2.190893	-5.750582	41.167316	0.481924	35.898658
	1.796843	-3.839144	41.641327	2.871986	40.674169
	1.846099	-0.016268	39.903288	3.668674	43.555694
	1.525933	-5.272723	39.745285	0.481924	34.954486
	1.919983	-3.361285	41.167316	3.031324	40.837355
	1.181140	-3.520571	40.693306	3.190661	40.363396
	1.649074	-3.520571	42.589348	2.234636	41.303413
	0.959486	-4.317003	42.431344	2.712649	40.826989
	1.969240	-2.405565	41.325320	3.987349	42.907103
	1.131883	-4.635576	39.587281	1.597286	36.548991
	2.141637	-3.679858	41.167316	3.509336	40.996795
	1.328908	-2.724139	41.483323	3.190661	41.949846
	2.658827	-4.954149	42.747351	1.278611	39.071813
	1.747587	-2.883425	42.747351	3.987349	43.851275
	2.264777	-3.042711	41.325320	2.234636	40.517244
	1.919983	-4.954149	40.693306	1.915961	37.655117
	2.043124	-4.476290	39.903288	2.393974	37.820972
	1.599818	-3.520571	40.851309	1.437949	38.768687
	1.673702	-5.750582	39.903288	0.959936	35.112642
	1.452049	-3.201998	42.747351	3.349999	42.895352
	1.575190	-2.564852	41.957334	1.915961	41.308443
	1.550562	-2.724139	41.009313	3.668674	41.953848
	1.649074	-3.839144	41.483323	3.031324	40.675503
	1.870727	-2.564852	41.325320	2.075299	40.835766
	1.525933	-4.794863	41.483323	2.075299	38.763759
	1.993868	-4.476290	41.009313	2.075299	38.608321
	1.378165	-3.679858	45.117404	2.234636	43.672182
	1.919983	-4.157717	41.641327	2.553311	40.036921
	1.156511	-3.042711	41.641327	3.668674	42.267289
	1.525933	-3.998431	41.799330	2.553311	40.354211
	1.205768	-3.042711	41.483323	3.987349	42.427960
	1.944612	-2.405565	41.483323	3.349999	42.427756
	0.959486	-3.520571	42.115337	3.031324	41.626090
	1.969240	-3.839144	43.221362	3.349999	42.732216
	1.402793	-2.246279	42.747351	3.190661	43.691733
	2.092380	-6.069155	38.007246	0.163249	32.101340
	1.747587	0.620878	44.011379	6.377411	51.009668
	1.944612	-6.069155	38.481257	0.003911	32.416013
	1.599818	-2.405565	42.589348	3.668674	43.852456
	2.092380	-3.361285	41.167316	3.031324	40.837355
	1.846099	-5.272723	40.535302	1.437949	36.700528
	1.969240	-4.476290	40.693306	1.597286	37.814302
	1.624446	-2.724139	45.433411	4.465361	47.174633
	1.525933	-3.839144	42.431344	3.828011	42.420211
	1.427421	-3.520571	40.377299	2.393974	39.250701
	0.959486	-4.476290	41.483323	2.075299	39.082332
	1.378165	-2.883425	42.589348	4.943374	44.649296
	0.984115	-5.432009	38.955267	0.800599	34.323857
	1.722958	-5.909868	40.061292	0.959936	35.111359
	1.476677	-2.086993	45.117404	5.262049	48.292460
	1.969240	-5.113436	40.219295	0.800599	35.906458
	1.476677	-2.564852	41.325320	2.393974	41.154441
	2.190893	-2.724139	41.009313	4.306024	42.591198
	1.230396	-3.361285	41.009313	2.393974	40.042002
	1.821471	-4.476290	39.587281	2.553311	37.664302
	1.255024	-1.449847	41.799330	4.943374	45.292857
	1.944612	-4.476290	42.115337	1.437949	39.076996
	1.501305	-2.564852	42.431344	3.668674	43.535166
	2.018496	-4.476290	42.589348	1.119274	39.232331
	1.427421	-3.998431	41.325320	2.234636	39.561525
	2.314034	-1.927706	42.273341	4.146686	44.492321
	1.649074	-2.724139	42.273341	2.712649	42.261851
	2.092380	-3.679858	40.535302	3.349999	40.205443
	1.427421	-2.724139	41.641327	3.668674	42.585862
	1.673702	-6.228441	38.639260	0.481924	32.892742
	1.772215	-0.334841	44.011379	5.740061	49.416599
	1.649074	-3.679858	41.483323	2.553311	40.356777
	1.895355	-2.883425	40.851309	3.349999	41.317883
	1.722958	-1.768420	40.219295	3.987349	42.438224
	1.575190	-6.547015	37.217229	0.003911	30.674125
	1.673702	-3.201998	41.167316	3.190661	41.155979
	1.722958	-2.405565	40.219295	3.987349	41.801078
	1.624446	-5.591295	42.589348	0.800599	37.798651
	1.747587	-3.998431	41.325320	2.393974	39.720863
	1.131883	-4.157717	40.693306	3.828011	40.363600
	1.452049	-5.272723	41.009313	1.756624	37.493214
	1.205768	-3.520571	40.219295	3.349999	40.048723
	1.722958	-7.662020	38.955267	-0.314764	30.978483
	1.255024	-3.998431	41.167316	3.349999	40.518884
	1.796843	-4.635576	40.693306	2.234636	38.292365
	1.328908	-3.998431	41.009313	2.553311	39.564193
	2.018496	-3.042711	43.379365	4.465361	44.802015
	1.747587	-5.432009	40.219295	1.119274	35.906560
	1.993868	-5.591295	41.167316	1.278611	36.854632
	1.575190	-2.405565	41.009313	4.306024	42.909771
	1.895355	-5.909868	39.113271	1.119274	34.322676
	1.550562	-4.317003	40.535302	2.712649	38.930947
	1.772215	-6.706301	38.165250	0.163249	31.622197
	1.698330	-1.768420	43.379365	4.465361	46.076307
	1.599818	-0.175555	45.749418	7.174099	52.747962
	1.698330	-2.883425	45.907421	3.509336	46.533332
	1.821471	-3.201998	43.063358	3.509336	43.370696
	1.722958	-4.317003	39.903288	2.871986	38.458271
	1.501305	-3.839144	41.799330	1.915961	39.876147
	1.649074	-3.839144	41.325320	3.031324	40.517499
	1.082627	-4.794863	39.587281	2.712649	37.505067
	1.722958	-3.520571	41.799330	2.712649	40.991408
	1.156511	-1.609133	43.063358	4.784036	46.238261
	1.870727	-3.839144	41.799330	2.871986	40.832172
	1.255024	-3.201998	40.535302	3.349999	40.683303
	2.018496	-1.131274	41.641327	4.784036	45.294089
	1.476677	-6.387728	37.849243	0.641261	32.102776
	2.018496	-4.476290	40.535302	2.393974	38.452986
	1.673702	-3.520571	41.009313	5.580724	43.069465
	2.166265	-5.591295	40.693306	1.915961	37.017971
	1.870727	-3.520571	42.115337	3.828011	42.422777
	2.092380	-5.272723	42.905355	2.234636	39.867268
	1.870727	-4.794863	41.641327	1.915961	38.762425
	2.043124	-3.839144	41.167316	3.668674	40.996846
	1.821471	-3.361285	42.589348	3.509336	42.737399
	1.796843	-3.520571	38.955267	3.987349	39.422045
	1.698330	-4.476290	41.325320	2.234636	39.083666
	1.895355	-3.839144	41.009313	2.712649	39.882817
	1.993868	-3.042711	42.431344	4.624699	44.013331
	1.501305	-4.476290	41.641327	2.075299	39.240335
	2.117009	-4.635576	42.431344	2.234636	40.030404
	1.353536	-3.042711	42.589348	5.421386	44.968022
	2.240149	-5.113436	40.219295	1.915961	37.021820
	1.624446	-3.839144	41.957334	2.712649	40.830838
	2.018496	-4.476290	40.693306	2.712649	38.929664
	1.476677	-2.564852	43.221362	3.987349	44.643858
	2.240149	-5.591295	40.535302	1.597286	36.541293
	1.969240	-5.113436	44.011379	0.959936	39.857879
	2.264777	-5.909868	40.377299	0.481924	34.949354
	1.698330	-2.564852	42.905355	4.465361	44.805864
	1.919983	-3.520571	42.115337	2.393974	40.988740
	1.821471	-1.927706	42.273341	4.465361	44.810996
	1.624446	-3.042711	41.957334	3.828011	42.742633
	1.747587	-2.564852	42.589348	3.987349	44.011844
	1.772215	-0.334841	43.537369	5.102711	48.305239
	1.895355	-3.520571	42.905355	3.349999	42.734782
	1.649074	-3.679858	43.537369	3.190661	43.048172
	2.092380	-2.405565	42.273341	5.580724	45.448498
	1.747587	-6.547015	39.587281	0.641261	33.681528
	2.043124	-3.042711	42.273341	3.509336	42.739965
	1.673702	-3.998431	42.115337	5.102711	43.219618
	2.486431	-2.724139	42.747351	4.306024	44.329236
	2.560315	-3.042711	42.115337	3.668674	42.741299
	4.358168	-1.768420	44.959400	4.465361	47.656342
	4.949244	-0.175555	44.327386	5.740061	49.891893
	7.781479	0.620878	48.277474	7.811449	56.709800
	9.382307	2.213743	47.487456	8.608136	58.309335
	12.411568	4.921613	47.487456	11.954224	64.363293
	13.544462	6.355192	52.069558	12.910248	71.334998
	16.204300	8.425916	53.017579	14.503624	75.947119
	17.608104	11.293074	55.861642	19.124411	86.279126
	19.775380	15.275236	61.075757	20.239773	96.590767
	19.356702	16.071669	62.971799	21.673811	100.717279
	21.129927	19.098112	65.815862	26.135261	111.049235
	23.001666	22.920988	69.607946	28.047311	120.576245
	26.227951	29.133161	76.244093	34.102136	139.479390
	29.626634	30.726026	77.192114	36.332861	144.251002
	34.133584	34.867475	82.722237	38.722924	156.312635
	38.763674	42.194654	91.096422	46.371124	179.662200
	43.541533	41.876081	94.098489	45.096424	181.070993
	48.639558	53.344709	102.788681	55.294024	211.427414
	53.195765	56.052580	108.002797	59.596136	223.651513
	57.678088	65.131911	116.692989	66.925661	248.750561
	62.726858	71.344084	119.537052	71.227774	262.108910
	65.903889	72.618376	125.383182	73.777174	271.778731
	68.711498	81.856993	134.547385	82.062724	298.467101
	74.351345	90.777037	141.815546	87.480199	320.072781
	79.547885	93.166335	147.187665	90.507611	330.861610
	84.473517	102.882811	158.563917	97.359124	358.805851
	88.340137	109.094985	164.094039	105.644674	378.833697
	93.191885	116.262877	170.256176	107.078711	393.597764
	95.383791	126.775786	178.314354	114.248898	419.339039
	99.004131	136.332976	187.162550	121.578423	445.073950
	102.008768	147.005172	196.800764	127.473911	471.279846
	106.491094	159.907378	209.441044	138.468199	507.816620
	110.037550	173.765303	223.503355	148.665799	545.934457
	115.209466	189.534667	237.565667	163.165511	590.265845
	114.618390	198.773284	248.783915	170.654374	618.211573
	119.888820	215.020507	263.478241	184.516736	663.015484
	123.336764	232.701309	278.488573	199.972474	711.162355
	127.474298	246.399947	295.078941	211.604111	753.082999
	129.690835	262.965744	310.563284	225.785149	799.314176
	132.055140	280.646545	326.995648	242.196911	849.839103
	132.030512	294.185898	344.060026	253.031861	891.277784
	132.104396	307.406677	358.438344	264.185486	930.030507
	130.872987	320.149597	370.920621	276.613811	967.684029
	130.035629	330.025360	381.348852	282.987311	994.361523
	128.779592	342.449707	395.569167	293.822261	1031.841134
	128.336285	350.573319	404.891373	302.585824	1058.050515
	128.016118	354.236908	411.053510	303.382511	1068.672929
	128.114631	360.926941	417.373650	308.481311	1086.781902
	128.188516	366.024109	427.169867	313.102099	1106.296074
	128.754964	370.324845	428.433895	314.695473	1113.454213
	127.572811	372.395569	430.803947	317.404211	1120.603727
	126.045864	374.944153	433.015996	317.244874	1125.205023
	123.139739	377.492737	434.438028	318.838249	1130.769013
	119.667166	378.448456	435.386049	321.228311	1135.062815
	115.726658	377.174164	434.280024	318.360236	1129.814424
	111.367472	383.227051	438.072108	322.662349	1143.961508
	107.845643	378.767029	435.386049	320.750299	1134.903376
	104.791750	382.112046	436.808080	326.486449	1145.406574
	102.944638	382.749192	437.282091	326.327111	1146.358393
	102.033396	380.997040	434.280024	324.574399	1139.851463
	100.383309	382.112046	435.544052	325.052411	1142.708509
	97.132391	380.678467	435.544052	328.557836	1144.780355
	94.300152	379.244889	432.541986	324.415061	1136.201935
	89.793199	378.448456	432.067975	325.052411	1135.568842
	85.434015	374.784866	429.855926	321.228311	1125.869104
	79.326232	373.351288	426.853860	320.112949	1120.318096
	74.474486	366.979828	421.007730	316.288848	1104.276407
	67.283065	361.245514	416.109622	310.393361	1087.748497
	63.194793	356.785492	408.841461	307.206611	1072.833564
	58.466188	347.865448	403.627345	300.036424	1051.529217
	55.166017	339.741836	396.043177	292.388223	1028.173237
	51.422539	333.370377	389.881041	287.767436	1011.018853
	51.471795	320.627456	378.346785	276.932486	975.906728
	47.137242	310.273834	369.182582	268.168924	947.625339
	43.763186	299.442352	355.594281	259.246024	914.282657
	38.591277	287.177291	345.482057	249.048424	881.707772
	35.635900	275.549377	333.789798	239.010161	848.349336
	30.513247	262.965744	320.991515	229.927924	813.885182
	27.360846	250.382110	310.089273	217.021586	777.492969
	23.346459	239.391341	297.290990	208.098686	744.781017
	21.080671	225.214843	284.492706	197.582411	707.289960
	16.820004	214.064788	271.536419	185.950774	671.551981
	14.677356	203.074020	257.948118	177.824561	638.846699
	11.919005	190.171813	246.887873	167.467624	604.527310
	11.204789	179.977477	234.405597	157.110686	571.493760
	9.702473	166.756698	220.659292	147.391098	534.807088
	7.953876	156.084502	210.231061	136.556149	502.871712
	5.564947	147.801604	200.118837	129.226624	477.147064
	4.259656	135.536543	189.058592	121.419086	446.014222
	2.437174	126.297926	178.314354	113.292873	417.905154
	1.870727	116.103591	168.360134	106.122686	390.586410
	1.082627	106.387114	157.773899	97.518461	361.679474
	1.279652	96.989211	148.135686	88.436224	333.561120
	1.476677	90.617751	141.815546	85.886824	318.320120
	2.215521	79.786269	129.807280	73.617836	283.211384
	2.461802	76.441252	126.331203	71.546448	274.318903
	3.077506	68.317640	118.747034	63.579574	250.644249
	2.658827	64.813338	112.426895	60.233486	237.473718
	3.126762	57.486158	105.474741	55.294024	218.254923
	2.461802	52.548277	100.734635	50.354561	203.637473
	2.166265	47.769682	92.834461	46.689799	187.293941
	1.427421	40.123930	87.778349	40.475636	168.377915
	1.304280	38.053205	85.092289	38.244911	161.390406
	0.984115	33.911756	81.774216	35.376836	151.062808
	1.378165	29.292448	75.770083	30.915386	135.977917
	1.476677	26.743864	72.452009	28.525324	127.721197
	1.969240	23.876707	68.027911	26.931949	118.836567
	1.846099	19.416685	63.603813	21.992486	105.012984
	2.166265	16.708815	60.443743	19.124411	96.276969
	2.166265	16.868101	60.759750	21.195799	98.823650
	1.993868	16.230955	60.443743	17.849711	94.524409
	1.796843	14.000944	56.651659	16.415674	87.068277
	1.673702	11.930219	55.861642	16.415674	84.207535
	1.501305	11.930219	54.597614	14.184949	80.712782
	1.427421	9.540922	50.489523	13.228924	73.259368
	1.378165	8.744490	50.331519	11.157536	70.233545
	1.328908	10.337354	47.803463	11.954224	70.095041
	1.993868	6.514479	47.645460	11.954224	66.114162
	1.722958	6.673765	47.803463	11.794886	66.272114
	2.018496	5.877333	47.171449	11.635549	64.684330
	1.722958	3.647321	45.907421	10.998199	60.552941
	2.215521	5.558759	50.331519	12.750911	68.641190
	1.476677	3.328748	46.539435	15.140974	65.009157
	1.796843	4.603041	47.645460	13.388261	65.636761
	1.205768	4.603041	47.171449	13.228924	65.003413
	1.698330	3.806608	46.223428	13.388261	63.418297
	1.008743	5.718046	48.277474	13.388261	67.383781
	1.846099	4.284467	47.961467	13.228924	65.474858
	1.279652	4.762327	49.225495	12.591574	66.579395
	1.772215	6.355192	48.593481	13.228924	68.177596
	1.304280	4.284467	48.593481	13.388261	66.266209
	1.796843	3.328748	47.487456	11.316874	62.133078
	1.452049	5.399473	45.591414	12.591574	63.582461
	1.722958	1.895170	46.381432	10.520186	58.796788
	1.378165	3.328748	47.171449	10.679524	61.179721
	1.796843	3.328748	47.487456	10.520186	61.336391
	1.378165	1.258024	46.539435	8.926811	56.724270
	1.649074	1.895170	47.013446	8.448799	57.357414
	1.796843	2.373029	46.855442	11.954224	61.182695
	1.969240	-0.175555	42.905355	6.855424	49.585224
	1.698330	1.417310	44.959400	7.492774	53.869484
	1.698330	-0.016268	43.853376	8.448799	52.285906
	1.328908	-1.927706	42.747351	3.987349	44.806994
	1.476677	-0.494128	43.537369	5.421386	48.464627
	1.722958	-0.494128	47.171449	6.536749	53.214070
	1.772215	1.098737	43.853376	4.784036	49.736149
	1.870727	-1.131274	44.485390	5.102711	48.456827
	1.427421	-2.564852	41.957334	2.234636	41.627118
	1.969240	1.258024	41.483323	3.509336	46.250683
	1.181140	-2.564852	42.431344	4.306024	44.172516
	2.043124	-0.812701	42.589348	4.624699	46.401346
	1.107255	-3.201998	42.431344	5.740061	44.969407
	1.698330	-4.317003	41.799330	2.712649	40.194975
	1.402793	-3.042711	44.327386	2.553311	43.837986
	1.772215	-2.086993	43.063358	6.855424	47.831789
	1.205768	-2.883425	42.431344	1.915961	41.463880
	1.993868	-6.228441	38.797264	0.322586	32.891408
	1.698330	-3.839144	39.429278	1.915961	37.506095
	1.993868	-3.520571	39.903288	0.800599	37.183316
	1.698330	-5.591295	38.797264	0.959936	34.165904
	1.673702	-5.432009	40.061292	-0.474102	34.155181
	1.255024	-3.201998	39.903288	0.800599	37.501889
	1.624446	-5.591295	40.219295	1.278611	35.906611
	1.279652	-3.839144	40.535302	0.959936	37.656094
	1.624446	-2.883425	37.849243	1.597286	36.563103
	1.205768	-5.591295	39.903288	1.437949	35.749941
	1.328908	-3.042711	41.325320	3.031324	41.313932
	1.476677	-4.317003	39.113271	2.712649	37.508916
	1.599818	-5.113436	40.219295	1.437949	36.543808
	1.846099	-4.157717	41.483323	1.915961	39.241567
	1.328908	-4.954149	40.377299	3.349999	38.773148
	1.698330	-5.750582	38.481257	0.322586	33.053261
	0.910230	-4.317003	39.745285	1.278611	36.706892
	1.476677	-4.954149	38.955267	2.553311	36.554429
	0.934858	-4.157717	39.429278	0.003911	35.275472
	1.501305	-4.317003	40.851309	1.278611	37.812917
	0.811718	-5.591295	39.429278	-1.111452	32.726531
	1.846099	0.302305	42.431344	1.756624	44.490273
	1.255024	-4.794863	42.273341	1.437949	38.916426
	1.870727	-5.909868	39.271274	-1.748802	31.612604
	1.624446	-5.272723	38.323253	0.959936	34.010467
	1.969240	-6.387728	39.745285	-0.792777	32.564780
	1.575190	-1.290560	41.483323	3.031324	43.224087
	2.264777	-5.432009	40.219295	1.915961	36.703247
	1.501305	-2.883425	41.957334	1.119274	40.193182
	2.141637	-3.998431	42.431344	0.322586	38.755500
	1.772215	-5.272723	40.219295	0.800599	35.747171
	2.117009	-2.564852	42.747351	-0.314764	39.867735
	1.279652	-4.794863	40.693306	-0.792777	35.105666
	2.240149	-2.883425	40.693306	0.481924	38.291804
	1.772215	1.098737	44.011379	1.597286	46.707403
	2.117009	-3.042711	41.799330	0.322586	39.079205
	2.067752	-2.246279	43.063358	-0.314764	40.502315
	1.944612	-0.016268	43.695372	0.959936	44.639040
	1.722958	-1.449847	47.329453	2.234636	48.114242
	2.117009	-2.883425	42.115337	-0.952114	38.279798
	1.870727	-1.609133	41.167316	0.481924	40.040107
	1.722958	-3.839144	42.273341	-0.155427	38.278770
	1.673702	-1.927706	42.747351	0.481924	41.301569
	1.304280	-3.520571	41.641327	1.756624	39.877379
	1.673702	-4.157717	42.273341	-0.952114	37.163510
	1.353536	-1.449847	44.643393	0.959936	44.153483
	1.673702	-1.290560	44.011379	3.509336	46.230155
	1.082627	-1.131274	42.747351	0.800599	42.416676
	1.846099	-4.157717	41.009313	-1.748802	35.102794
	1.156511	-0.653414	43.063358	3.987349	46.397293
	1.796843	-0.175555	42.905355	-0.633439	42.096361
	1.378165	-2.086993	43.063358	0.959936	41.936302
	1.969240	-3.042711	41.799330	-0.792777	37.963842
	1.427421	0.620878	44.643393	1.756624	47.020895
	2.117009	-3.998431	43.695372	1.278611	40.975553
	1.525933	-1.768420	43.537369	0.959936	42.728885
	2.067752	-3.998431	42.273341	2.553311	40.828221
	1.624446	-2.883425	43.695372	2.393974	43.205921
	1.796843	-3.201998	40.693306	1.119274	38.610581
	1.624446	-4.635576	41.641327	3.668674	40.674424
	1.649074	-1.290560	42.747351	2.712649	44.169440
	1.895355	-2.564852	41.799330	3.349999	42.584477
	1.895355	-2.405565	42.905355	4.943374	45.443163
	1.895355	-3.520571	42.431344	0.959936	39.870709
	1.402793	-3.679858	42.589348	3.668674	42.578164
	1.649074	-4.794863	39.903288	1.915961	37.024386
	1.205768	-2.405565	41.641327	2.234636	41.470397
	1.796843	-5.113436	40.851309	3.190661	38.928534
	1.230396	-5.750582	39.903288	1.119274	35.271980
	1.969240	-1.609133	43.063358	3.987349	45.441574
	1.304280	-3.839144	44.959400	4.943374	46.063630
	1.895355	-1.927706	43.695372	5.262049	47.029715
	1.304280	-3.201998	41.799330	5.899399	44.496731
	2.141637	-5.909868	40.693306	3.190661	37.974098
	1.304280	-2.724139	41.957334	5.580724	44.813918
	1.895355	-3.520571	41.483323	7.652111	45.614863
	1.575190	-4.476290	41.641327	4.943374	42.108410
	1.944612	-4.157717	42.589348	5.102711	43.534342
	1.846099	-3.520571	42.747351	8.130124	47.356904
	2.043124	-2.564852	42.273341	4.624699	44.333187
	1.353536	-4.317003	41.957334	5.740061	43.380391
	1.846099	-4.476290	40.219295	6.855424	42.598429
	1.525933	-2.883425	40.851309	3.668674	41.636558
	1.870727	-6.706301	40.219295	4.624699	38.137693
	1.821471	-4.157717	39.745285	3.031324	38.618891
	1.649074	-5.591295	41.325320	4.784036	40.518060
	1.525933	-7.024874	41.325320	4.306024	38.606469
	1.452049	-5.750582	40.219295	3.828011	38.296724
	1.328908	-6.547015	41.167316	4.943374	39.563675
	1.230396	-4.317003	41.641327	4.943374	42.267697
	1.402793	-5.750582	38.955267	3.828011	37.032696
	1.255024	-4.954149	41.009313	7.174099	43.229262
	1.378165	-4.157717	40.377299	3.509336	39.728918
	1.205768	-4.954149	39.903288	5.262049	40.211187
	1.649074	-4.476290	41.957334	7.492774	44.973817
	1.230396	-2.724139	43.379365	4.624699	45.279925
	1.796843	-5.591295	41.641327	4.784036	40.834067
	1.328908	-4.635576	39.745285	5.102711	40.212419
	2.240149	-2.086993	42.589348	4.943374	45.445729
	2.043124	-7.343447	38.639260	2.712649	34.008462
	2.683456	-2.246279	43.379365	5.899399	47.032485
	2.092380	-4.794863	43.221362	3.828011	42.254510
	3.151390	-2.086993	48.277474	7.652111	53.842592
	2.831224	-5.591295	40.851309	2.234636	37.494650
	3.594696	-3.679858	44.327386	6.377411	47.024940
	3.225274	1.098737	47.645460	10.042174	58.786371
	4.259656	-1.449847	44.011379	6.377411	48.938944
	4.062631	-0.812701	44.643393	9.564161	53.394854
	4.801475	-1.131274	44.485390	6.377411	49.731527
	4.259656	1.258024	47.961467	9.245486	58.464977
	5.367922	1.735883	47.803463	11.635549	61.174895
	5.614203	5.718046	51.279540	9.086149	66.083735
	6.919494	5.080900	48.277474	10.360849	63.719222
	7.215032	4.443754	49.699505	11.157536	65.300795
	8.569579	4.125181	50.331519	10.998199	65.454899
	7.929248	5.399473	51.911554	13.706936	71.017963
	8.766604	7.310911	52.543568	12.113561	71.968040
	8.741976	7.310911	53.965600	15.459649	76.736159
	9.899498	7.310911	53.649593	14.025611	74.986115
	9.998011	10.496641	56.019645	16.575011	83.091297
	11.130905	9.859495	58.705705	17.690373	86.255573
	11.106277	14.638090	60.127736	19.761761	94.527587
	11.574211	14.638090	60.285740	19.761761	94.685591
	12.608593	17.345961	63.445810	25.497911	106.289681
	13.248924	19.894544	64.709838	24.063874	108.668256
	14.209421	19.575972	65.657859	25.975924	111.209754
	14.726612	21.646696	68.817928	29.800024	120.264648
	15.588597	24.673140	71.977998	28.206648	124.857787
	16.893888	24.354567	72.926020	30.437373	127.717960
	17.731245	25.947432	72.452009	32.827436	131.226877
	18.543973	29.292448	76.402096	32.190086	137.884631
	19.430586	30.248167	78.772149	36.014186	145.034502
	20.637365	29.133161	77.824128	32.668099	139.625388
	21.721002	35.026762	85.566300	39.678949	160.272010
	22.139681	35.504621	88.094356	40.316299	163.915276
	23.518856	39.646071	90.148401	42.706361	172.500833
	24.134560	39.486784	92.202447	44.777749	176.466979
	25.833901	41.876081	92.992464	44.777749	179.646294
	26.745142	44.583952	94.572499	47.645824	186.802275
	28.764649	47.132536	98.522587	51.947936	197.603059
	29.306468	49.521833	97.574566	48.442511	195.538910
	31.079694	52.070417	103.420695	53.700649	209.191761
	31.498373	54.778288	106.580765	57.365411	218.724464
	33.074574	58.123305	110.846860	54.975349	223.945513
	33.370111	58.601164	111.320870	59.277461	229.199495
	35.044825	61.468321	113.532919	59.436799	234.438039
	34.355237	61.786894	114.796947	60.552161	237.136002
	36.177719	65.131911	116.060975	63.420236	244.613122
	36.719538	68.317640	118.747034	62.942224	250.006899
	37.778548	72.140517	122.381115	68.519036	263.040668
	38.271111	73.255522	122.539119	66.766323	262.560964
	39.428633	77.874831	127.279224	70.431086	275.585140
	39.551774	81.060561	133.125353	74.733199	288.919112
	40.660041	85.520583	132.019329	74.255186	291.795097
	41.004834	89.184172	135.969416	78.716636	303.870224
	41.768307	90.617751	137.233444	81.106699	308.957893
	42.063845	93.644194	139.129486	80.310011	313.083691
	42.728804	96.511351	141.815546	84.293449	322.620345
	43.196739	100.334227	146.239644	89.073574	335.647444
	43.393764	103.201384	148.135686	86.524174	337.861243
	43.640046	106.705687	152.717787	93.057011	352.480485
	44.551287	108.776412	152.559784	94.809724	356.145919
	44.452774	114.988585	159.037927	97.677799	371.704311
	44.699056	117.059309	161.249976	101.661236	379.970522
	44.107980	120.722899	164.884057	103.732624	389.339579
	43.886327	121.837905	166.780099	105.166661	393.784664
	43.566161	127.094359	174.206263	110.743474	412.044096
	42.605664	129.483657	174.522270	111.221486	415.227413
	42.359382	132.510100	177.998347	115.045586	425.554033
	41.325000	132.032241	177.682340	114.886249	424.600829
	41.004834	134.899398	179.262375	116.798299	430.960071
	39.945824	135.536543	182.106438	120.303724	437.946705
	40.167478	139.200133	182.106438	118.551011	439.857582
	38.886814	137.925841	184.318487	120.622399	442.866727
	38.492764	137.925841	185.108505	121.578423	444.612769
	37.236729	138.244414	188.584582	119.347699	446.176694
	36.916563	135.377257	185.108505	119.666374	440.152135
	35.389619	136.332976	184.950501	117.913661	439.197138
	35.463503	133.465819	184.160484	117.435648	435.061951
	33.714905	132.828673	181.790431	117.594986	432.214090
	33.616393	132.350813	181.158417	114.248898	427.758129
	32.187961	131.076522	179.894389	115.045586	426.016497
	31.843167	128.368651	179.262375	112.974199	420.605225
	30.365478	127.890792	177.366333	111.380824	416.637948
	30.981182	124.386488	176.102305	110.106123	410.594917
	29.675891	123.908629	172.784232	107.397386	404.090247
	28.666137	119.289321	167.412113	104.529311	391.230744
	27.188449	118.174315	167.570116	105.007324	390.751755
	26.794399	116.740736	164.568050	101.023886	382.332672
	25.489107	114.829299	163.936036	101.183223	379.948558
	24.774891	109.732131	159.195931	98.315149	367.243210
	23.641997	111.643569	159.827945	95.606411	367.077924
	22.853897	104.316390	153.981815	92.260323	350.558528
	22.065796	103.201384	150.031728	92.260323	345.493435
	21.080671	100.971373	147.661675	86.524174	335.157222
	20.415711	97.467070	144.659609	85.727486	327.854165
	19.553727	96.352064	142.763567	84.293449	323.409080
	19.405958	93.644194	140.709521	80.788023	315.141739
	18.543973	88.387740	138.339469	77.441936	304.169144
	17.681988	89.343458	135.021395	76.963924	301.328777
	17.090913	86.635588	132.809346	76.326574	295.771508
	16.573722	83.927717	129.333269	73.299161	286.560148
	15.760994	81.379134	125.225178	71.227774	277.832085
	15.539341	79.626982	124.277157	72.024461	275.928600
	14.357190	80.264128	121.433094	67.722348	269.419571
	14.357190	76.600539	121.907105	67.881686	266.389329
	13.396693	73.892668	118.747034	67.244336	259.884038
	13.199668	71.184798	119.063042	62.304874	252.552713
	12.337683	69.432646	114.480940	62.623548	246.537135
	12.805618	68.636213	114.006930	60.074149	242.717292
	11.845121	65.291197	110.688856	58.799449	234.779502
	12.091402	61.786894	105.790748	55.931374	223.509015
	10.933880	63.698332	107.844793	56.090711	227.633836
	10.958508	59.716169	103.578699	53.381974	216.676842
	10.219664	56.211866	101.366650	51.151249	208.729765
	10.712227	56.052580	100.102621	50.354561	206.509763
	8.914373	55.096861	101.208646	51.469924	207.775431
	9.628589	51.433271	94.888506	46.689799	193.011576
	8.298670	49.681120	92.360450	45.574436	187.616006
	8.618835	46.176817	91.096422	43.821724	181.094963
	7.682966	47.928968	91.412429	43.184374	182.525771
	7.830735	43.946806	88.726370	41.431661	174.104837
	7.362801	42.991087	88.568366	43.343711	174.903164
	8.126273	42.831800	87.936352	39.200936	169.969089
	7.338172	37.575346	83.986265	36.970211	158.531822
	7.559826	38.371778	81.774216	39.360274	159.506268
	6.968750	38.212492	83.196247	36.173524	157.582263
	7.387429	34.389616	80.036177	34.739486	149.165279
	6.500816	34.230329	79.246160	34.739486	148.215975
	7.215032	32.000318	78.456142	32.190086	142.646546
	6.279163	30.885313	80.510188	32.349424	143.744924
	6.426932	29.133161	75.612079	28.843999	133.589239
	5.983625	28.814589	76.086090	30.437373	135.338052
	6.377675	29.292448	73.400030	28.684661	131.377139
	5.885113	28.336729	72.768016	29.640686	130.745431
	6.156022	24.832426	70.555967	28.206648	123.595042
	5.761972	26.584578	68.817928	25.019899	120.422404
	6.205278	22.124555	68.501922	25.019899	115.646376
	5.737344	23.558134	69.607946	27.250623	120.416703
	6.106766	19.894544	68.817928	25.019899	113.732371
	5.515691	18.301680	66.447876	21.992486	106.742042
	6.180650	19.257399	66.605880	20.558449	106.421727
	5.761972	20.531690	67.553900	23.426524	111.512114
	5.860485	15.434522	60.759750	18.327724	94.521996
	5.515691	18.620252	64.077824	19.761761	102.459837
	5.934369	15.753096	62.181782	18.805736	96.740613
	5.663459	17.505247	63.761817	20.399111	101.666175
	5.958997	19.098112	64.867841	21.195799	105.161752
	6.106766	15.275236	61.549768	18.327724	95.152727
	5.934369	17.823820	62.971799	20.877123	101.672743
	5.934369	13.841658	57.915687	16.575011	88.332356
	5.983625	15.275236	61.233761	19.283748	95.792745
	6.402303	17.027387	61.075757	18.646399	96.749543
	6.402303	15.753096	60.917754	19.443086	96.113935
	6.771725	15.275236	61.391764	20.558449	97.225449
	6.820982	18.301680	63.919820	20.239773	102.461273
	6.894866	14.160231	60.759750	18.009048	92.929029
	7.018007	15.593809	59.811729	21.514474	96.920012
	7.190404	15.753096	61.865775	17.531036	95.149906
	6.820982	14.000944	59.021712	18.487061	91.509717
	7.461313	16.230955	61.075757	18.646399	95.953111
	7.264288	16.230955	62.023778	19.443086	97.697819
	7.781479	17.505247	62.339785	20.239773	100.084806
	7.485941	16.549528	62.971799	19.602424	99.123751
	8.101645	14.638090	62.023778	19.283748	95.945617
	7.707594	20.531690	63.129802	20.877123	104.538616
	8.323298	15.912382	60.759750	19.443086	96.115218
	8.692720	18.460966	63.919820	23.426524	105.807310
	8.717348	17.983107	61.707771	19.921099	99.611976
	8.397182	16.708815	63.445810	21.195799	101.350423
	9.037514	19.257399	65.025845	22.948511	107.231754
	8.815860	16.708815	64.077824	20.239773	101.026412
	9.406936	19.098112	66.131869	23.267186	108.497167
	9.259167	19.735258	67.395897	22.789174	109.920329
	9.603961	19.098112	65.499855	21.195799	105.793766
	9.603961	21.805983	66.605880	24.701224	113.113085
	9.825614	23.398847	69.133936	24.701224	117.234007
	9.653217	21.646696	67.553900	23.745199	112.945795
	10.786111	22.920988	68.817928	24.223211	115.962127
	10.022639	23.239561	71.819995	23.745199	118.804755
	10.884624	24.673140	70.871974	26.453936	121.999050
	10.515202	25.947432	71.029978	26.931949	123.909357
	10.736855	27.221723	72.610012	29.003336	128.835072
	11.057020	25.150999	71.345985	28.206648	124.703632
	11.697352	30.088881	73.716037	29.162674	132.967591
	11.377186	27.221723	72.610012	29.481348	129.313085
	11.869749	28.336729	74.664058	31.393399	134.394186
	11.524955	30.248167	76.560100	29.640686	136.448953
	12.116030	28.973875	76.086090	30.118699	135.178663
	11.894377	30.566740	76.086090	33.783461	140.436291
	12.485452	30.726026	77.982132	31.393399	140.101557
	12.239171	30.885313	75.928086	32.030749	138.844148
	12.928759	32.956038	78.614146	32.827436	144.397619
	12.608593	31.522459	77.666125	31.393399	140.581982
	13.445949	32.000318	77.034110	31.712074	140.746502
	12.904130	32.796751	79.720170	32.508761	145.025682
	13.889256	34.389616	82.406230	36.014186	152.810032
	13.519834	36.141768	80.510188	32.986774	149.638729
	14.332562	33.911756	80.194181	34.261474	148.367411
	13.864628	33.911756	80.826194	34.898823	149.636775
	14.504959	34.867475	81.616212	35.058161	151.541849
	14.258678	35.186048	82.880240	35.536174	153.602462
	14.948266	38.053205	84.302272	37.926236	160.281713
	14.480331	33.752470	83.670258	33.146111	150.568839
	15.169919	37.256773	85.566300	36.810874	159.633946
	15.046778	38.371778	86.672324	37.607561	162.651664
	15.637853	40.601790	87.620345	38.085574	166.307708
	15.219175	36.301054	82.880240	35.536174	154.717467
	16.204300	39.646071	85.250293	36.810874	161.707237
	16.056532	40.123930	86.988331	36.651536	163.763797
	16.746119	41.238935	87.778349	37.766899	166.784183
	16.204300	42.353941	88.726370	37.926236	169.006547
	16.647607	43.946806	92.360450	41.112986	177.420242
	16.598350	45.698957	90.622412	41.431661	177.753030
	16.943144	43.946806	89.674391	40.156961	173.778157
	16.622979	46.813963	92.518454	44.618411	183.950828
	17.066285	47.610396	91.886440	42.387686	181.884521
	16.992401	46.017530	91.570433	42.865699	180.453662
	17.558848	47.132536	92.992464	45.733774	185.858774
	17.411079	46.495390	94.098489	42.706361	183.300240
	17.558848	46.495390	93.150468	43.184374	182.830231
	17.484963	49.840406	95.204513	46.530461	191.575380
	17.509591	48.406828	94.730503	43.981061	187.118392
	17.854385	49.521833	92.992464	44.459074	186.973371
	17.706617	52.707563	98.680590	47.486486	198.874640
	17.805129	52.866850	97.732569	48.123836	198.723255
	17.903642	54.619002	96.152534	47.486486	198.258022
	17.780501	52.070417	98.206580	47.327149	197.604146
	17.854385	52.388990	99.470607	49.717211	201.576809
	18.149923	53.344709	98.206580	47.167811	198.719100
	17.435707	52.707563	99.154601	49.239199	201.101363
	18.026782	54.619002	100.102621	51.629261	206.350884
	17.361823	52.866850	98.364583	48.761186	199.992619
	17.928270	54.300428	100.892639	50.035886	205.228953
	17.411079	55.096861	100.576632	51.310586	206.984079
	18.174551	54.141142	101.998664	49.398536	205.538342
	17.681988	55.893293	102.630678	51.151249	209.675220
	18.445461	53.822569	101.050643	50.991911	205.865123
	17.657360	55.893293	102.314671	49.717211	207.925175
	18.223807	54.141142	99.154601	48.442511	201.738254
	17.386451	54.778288	100.102621	47.964499	202.845408
	17.903642	58.919737	104.368716	52.266611	215.555064
	17.435707	62.424040	106.738769	55.294024	224.456832
	17.361823	56.052580	101.840660	48.920524	206.813764
	17.312566	57.486158	105.474741	51.151249	214.112148
	17.337195	58.282591	102.788681	51.151249	212.222521
	17.189426	54.778288	99.944618	48.601849	203.324755
	17.263310	59.556883	104.526719	53.700649	217.784251
	16.893888	58.760450	102.630678	51.310586	212.701714
	16.918516	56.530439	101.998664	51.788599	210.317701
	16.795376	57.326872	102.788681	52.744624	212.860177
	16.869260	55.893293	103.420695	49.876549	209.190537
	16.327441	54.937574	101.840660	49.717211	206.495446
	16.450582	54.778288	100.576632	50.195224	205.550144
	16.031903	55.734007	101.682657	49.079861	206.496525
	16.179672	56.849013	100.102621	50.354561	207.306195
	15.785622	54.619002	100.734635	48.283174	203.636810
	15.785622	54.937574	100.102621	48.920524	203.960719
	15.662481	57.645445	98.996597	48.920524	205.562566
	15.588597	53.185423	99.944618	47.964499	201.094539
	15.194547	53.344709	100.418629	49.079861	202.843199
	15.022150	52.866850	98.680590	47.167811	198.715251
	15.391572	56.371153	102.156667	51.151249	209.679069
	15.194547	53.185423	98.680590	50.195224	202.061237
	14.800497	51.114699	96.942552	47.167811	195.225061
	14.751240	48.884687	95.836527	45.255761	189.976976
	14.554215	52.229704	97.890573	48.920524	199.040800
	14.455703	49.840406	98.996597	45.893111	194.730115
	14.455703	49.043974	96.310537	45.096424	190.450935
	13.766115	50.636839	97.732569	47.645824	196.015232
	13.913884	46.495390	93.308471	41.750336	181.554197
	13.889256	50.636839	94.888506	45.255761	190.781106
	14.504959	48.406828	93.308471	43.343711	185.059010
	13.593718	48.566114	93.624478	42.865699	185.056291
	13.963140	50.796125	95.678523	45.096424	191.571073
	13.248924	48.088255	93.624478	42.069011	183.781744
	13.963140	48.566114	94.888506	42.706361	186.160982
	13.248924	49.840406	93.782482	43.821724	187.444612
	13.716859	46.973249	92.044443	42.069011	181.086703
	12.904130	45.380384	91.096422	41.272324	177.749130
	13.692231	47.610396	92.044443	42.706361	182.361200
	13.150412	45.539671	90.622412	41.750336	177.912419
	13.322809	47.451109	92.360450	44.459074	184.270633
	13.322809	45.061811	92.518454	41.272324	178.852588
	13.322809	44.902525	91.096422	41.431661	177.430608
	13.125784	46.176817	91.570433	44.299736	182.046986
	13.347437	44.265379	89.516387	39.360274	173.142040
	12.510080	47.132536	89.990398	42.228349	179.351282
	13.101155	46.017530	91.096422	41.272324	178.386276
	13.051899	45.221098	90.306405	41.431661	176.959164
	12.756362	47.928968	88.094356	39.678949	175.702272
	12.559337	43.628233	89.516387	40.316299	173.460919
	12.657849	42.353941	88.568366	39.997624	170.919931
	12.608593	42.831800	88.410363	39.360274	170.602437
	12.116030	42.513227	88.726370	39.997624	171.237221
	12.583965	43.309660	88.884373	41.590999	173.785032
	11.795864	40.601790	86.830328	38.882261	166.314378
	12.436196	41.716795	87.778349	39.519611	169.014754
	12.042146	42.513227	88.094356	41.272324	171.879907
	12.534708	42.035368	91.412429	39.678949	173.126746
	11.968261	40.283216	86.988331	38.085574	165.357121
	12.682477	42.353941	89.200380	40.794311	172.348632
	11.919005	39.327497	85.566300	35.695511	160.589308
	12.731733	45.380384	89.200380	41.272324	175.853088
	12.091402	38.849638	83.986265	36.651536	159.487438
	12.559337	37.575346	83.038244	33.624124	154.237713
	12.510080	40.601790	86.356317	36.651536	163.609643
	12.657849	39.327497	85.566300	35.854849	160.748646
	12.140658	40.123930	85.882306	36.173524	162.179760
	12.633221	41.876081	85.882306	36.970211	164.728599
	12.214543	39.168211	84.460275	35.536174	159.164659
	12.386940	40.920362	86.040310	38.244911	165.205584
	12.288427	37.416059	82.722237	34.261474	154.399769
	12.288427	38.531065	83.828261	35.854849	158.214175
	12.189915	39.486784	84.934286	38.085574	162.506643
	12.313055	37.097487	84.618279	34.420811	156.136576
	12.214543	39.646071	84.934286	36.332861	160.913217
	12.460824	37.575346	85.566300	35.854849	158.996494
	12.386940	37.575346	83.196247	33.783461	154.555054
	12.214543	40.283216	83.828261	35.058161	159.169638
	12.707105	38.690351	84.460275	34.739486	157.890112
	11.869749	39.327497	83.986265	36.332861	159.646623
	12.436196	40.283216	83.512254	36.014186	159.809657
	11.771236	39.168211	84.934286	36.014186	160.116682
	12.436196	39.486784	86.514321	37.129549	163.130653
	12.017518	38.849638	84.460275	35.695511	159.005424
	12.485452	39.327497	84.460275	36.492199	160.279971
	11.820493	40.761076	86.356317	39.519611	166.637004
	12.805618	38.371778	84.302272	36.332861	159.006911
	12.066774	38.212492	84.460275	36.173524	158.846291
	12.928759	37.893919	84.144268	36.810874	158.849061
	12.288427	38.212492	87.936352	35.854849	162.003692
	13.002643	38.690351	85.566300	36.173524	160.430175
	12.780990	40.283216	86.198314	38.244911	164.726441
	13.076527	35.504621	81.774216	32.030749	149.309586
	12.756362	41.079649	84.618279	36.810874	162.508801
	13.248924	39.327497	83.986265	36.651536	159.965298
	13.076527	41.716795	86.514321	37.288886	165.520001
	13.642974	38.849638	83.512254	34.261474	156.623366
	13.199668	39.168211	85.566300	35.058161	159.792672
	13.593718	40.283216	88.410363	36.173524	164.867103
	13.125784	41.716795	86.040310	36.970211	164.727316
	13.347437	40.442503	86.672324	36.651536	163.766363
	13.051899	40.283216	85.092289	37.448224	162.823729
	13.347437	40.601790	85.882306	37.448224	163.932320
	13.396693	42.831800	88.252359	39.678949	170.763108
	13.372065	39.805357	84.776282	38.244911	162.826550
	13.298181	42.672514	88.568366	38.722924	169.963804
	13.372065	42.353941	87.462342	38.404249	168.220531
	13.445949	41.716795	90.148401	37.448224	169.313420
	13.322809	42.513227	87.462342	39.838286	169.813855
	13.519834	41.716795	86.830328	36.970211	165.517334
	13.051899	43.946806	87.146335	38.722924	169.816064
	13.347437	41.716795	86.356317	37.448224	165.521335
	12.928759	43.309660	87.936352	40.316299	171.562311
	13.864628	40.601790	87.620345	36.492199	164.714333
	12.953387	41.876081	86.830328	37.448224	166.154633
	13.642974	43.468946	91.886440	39.997624	175.353010
	13.396693	43.946806	89.200380	40.794311	173.941497
	13.716859	42.831800	87.778349	37.129549	167.739698
	13.642974	42.991087	88.094356	39.360274	170.445716
	14.209421	42.991087	87.620345	37.607561	168.218993
	13.815371	42.353941	85.882306	38.085574	166.321821
	14.012396	43.309660	88.252359	38.085574	169.647593
	13.692231	45.221098	90.464408	40.794311	176.479817
	13.938512	40.123930	86.040310	36.970211	163.134451
	13.864628	42.991087	88.252359	40.475636	171.719082
	14.381818	44.424665	89.358384	38.882261	172.665310
	14.086281	47.132536	91.728436	41.272324	180.133296
	13.913884	44.265379	90.780415	38.882261	173.928055
	13.864628	44.902525	89.990398	39.519611	174.412533
	14.012396	43.787519	90.938419	39.519611	174.245549
	14.037025	44.583952	89.674391	39.678949	173.937291
	13.913884	45.380384	89.200380	42.228349	176.809113
	13.889256	44.265379	90.148401	39.678949	174.092729
	13.913884	46.813963	92.676457	40.953649	180.444069
	14.184793	45.698957	92.044443	39.678949	177.422349
	14.110909	46.973249	90.780415	40.634974	178.388638
	14.184793	44.106093	89.042377	39.519611	172.668080
	13.963140	45.698957	91.096422	41.272324	178.067703
	14.135537	45.061811	89.358384	39.678949	174.099144
	13.815371	45.858244	92.202447	42.387686	180.448377
	14.037025	43.946806	90.464408	40.316299	174.727513
	13.519834	45.380384	91.096422	39.360274	175.837080
	14.258678	46.176817	92.676457	39.678949	178.532222
	13.396693	47.291822	89.358384	39.360274	176.010480
	14.110909	44.106093	88.252359	39.678949	172.037400
	13.642974	45.858244	90.464408	39.360274	175.682926
	14.332562	48.566114	90.938419	40.794311	180.298844
	13.766115	46.973249	94.730503	42.069011	183.772763
	14.406447	45.539671	90.780415	39.360274	175.680360
	13.716859	48.725401	89.358384	40.634974	178.718758
	14.357190	46.017530	91.096422	41.272324	178.386276
	13.716859	47.132536	91.254426	40.156961	178.543923
	14.455703	50.158980	91.570433	42.706361	184.435773
	13.347437	47.291822	92.676457	41.750336	181.718615
	14.504959	45.061811	91.096422	39.678949	175.837182
	13.741487	45.539671	92.202447	42.069011	179.811128
	14.283306	44.424665	90.306405	40.156961	174.888031
	13.889256	46.495390	91.728436	43.025036	181.248862
	14.357190	45.221098	88.568366	39.997624	173.787088
	13.642974	46.654677	90.938419	40.794311	178.387406
	14.283306	46.495390	90.938419	42.547024	179.980832
	13.766115	46.813963	90.464408	40.475636	177.754007
	14.406447	47.610396	90.622412	40.316299	178.549106
	14.012396	43.150374	90.148401	38.882261	172.181036
	14.037025	45.698957	90.306405	39.360274	175.365636
	14.135537	50.636839	94.256492	43.662386	188.555717
	13.889256	46.495390	91.728436	39.678949	177.902775
	13.839999	46.813963	90.148401	41.112986	178.075350
	14.381818	45.221098	90.622412	40.475636	176.319146
	13.667603	48.088255	92.834461	42.547024	183.469739
	14.037025	45.539671	89.674391	40.634974	175.849035
	13.692231	47.769682	93.308471	42.706361	183.784514
	13.766115	46.495390	92.834461	41.431661	180.761512
	13.938512	44.424665	88.884373	39.838286	173.147324
	13.618346	45.698957	89.832394	39.997624	175.528975
	14.110909	45.061811	89.990398	39.041599	174.093808
	13.667603	45.858244	90.306405	41.909674	178.074322
	13.618346	45.858244	91.254426	39.838286	176.950956
	13.322809	49.681120	92.992464	42.547024	185.220608
	13.741487	45.858244	93.150468	42.547024	181.555735
	13.273552	46.176817	91.412429	40.156961	177.746207
	13.741487	49.043974	89.516387	40.156961	178.717322
	12.953387	46.336103	91.254426	41.750336	179.340865
	13.716859	46.176817	89.990398	39.200936	175.368151
	13.101155	47.132536	88.410363	39.997624	175.540522
	13.692231	44.902525	90.938419	39.838286	175.679230
	13.076527	45.061811	90.938419	38.722924	174.723154
	13.790743	43.946806	90.622412	39.678949	174.248166
	13.027271	44.106093	89.358384	39.519611	172.984087
	13.913884	45.380384	89.832394	40.953649	176.166427
	13.224296	45.221098	88.726370	39.678949	173.626416
	13.741487	45.380384	89.200380	39.360274	173.941038
	13.495206	45.698957	89.674391	41.909674	177.283022
	13.593718	45.221098	88.726370	38.882261	172.829729
	13.445949	49.043974	92.202447	42.228349	183.474769
	13.790743	44.106093	90.464408	39.838286	174.408787
	13.347437	46.495390	90.780415	39.519611	176.795416
	13.815371	46.176817	89.358384	39.678949	175.214149
	13.667603	45.061811	90.148401	38.244911	173.455124
	13.667603	44.902525	87.936352	39.200936	172.039813
	13.347437	48.088255	93.466475	43.343711	184.898441
	13.544462	41.557508	86.988331	35.536174	164.082013
	13.372065	42.831800	88.568366	37.288886	168.689053
	13.569090	45.061811	90.622412	40.475636	176.159859
	13.519834	43.787519	90.306405	37.926236	172.020160
	13.470577	46.017530	90.780415	40.794311	177.592257
	13.298181	46.973249	91.096422	42.069011	180.138683
	13.372065	46.176817	89.990398	40.634974	176.802188
	13.495206	45.858244	90.148401	41.590999	177.597644
	13.347437	46.973249	92.834461	41.112986	180.920696
	13.347437	46.654677	90.464408	40.794311	177.913396
	12.657849	45.221098	91.096422	42.387686	178.705206
	13.322809	44.424665	89.516387	38.722924	172.663976
	12.583965	48.088255	87.778349	42.228349	178.094952
	13.544462	44.743238	88.726370	41.431661	174.901269
	12.633221	45.221098	89.200380	39.041599	173.463076
	13.445949	46.495390	88.884373	40.316299	175.696062
	12.731733	43.787519	89.358384	39.041599	172.187501
	13.519834	44.743238	90.464408	38.882261	174.089908
	12.805618	44.265379	90.780415	40.953649	175.999443
	13.495206	45.858244	92.202447	41.590999	179.651689
	13.027271	44.583952	88.884373	41.112986	174.581311
	13.445949	43.150374	86.514321	38.085574	167.750268
	13.051899	44.743238	88.410363	38.722924	171.876525
	13.716859	43.468946	87.778349	40.316299	171.563594
	13.347437	43.150374	87.462342	38.085574	168.698289
	13.692231	45.698957	88.410363	38.722924	172.832244
	13.495206	44.902525	91.096422	40.794311	176.793258
	13.569090	43.628233	88.252359	37.288886	169.169478
	13.667603	45.698957	87.936352	40.156961	173.792271
	13.692231	43.468946	89.042377	37.926236	170.437559
	13.593718	43.787519	86.514321	37.607561	167.909401
	13.593718	41.398222	85.882306	36.810874	164.091402
	13.347437	43.468946	88.884373	37.129549	169.482868
	13.569090	45.061811	92.360450	39.200936	176.623198
	13.298181	42.991087	88.726370	38.563586	170.281043
	13.347437	42.991087	89.200380	37.129549	169.321016
	13.445949	43.787519	88.568366	38.722924	171.078809
	13.396693	45.380384	89.358384	40.634974	175.373742
	13.593718	45.858244	89.674391	39.678949	175.211583
	13.150412	45.380384	89.674391	41.750336	176.805111
	13.445949	44.106093	89.674391	38.563586	172.344069
	13.002643	44.265379	87.778349	37.926236	169.969964
	13.372065	43.787519	90.780415	41.272324	175.840258
	13.051899	44.265379	89.200380	38.722924	172.188682
	13.642974	46.336103	86.514321	37.926236	170.776660
	13.150412	42.353941	86.988331	39.519611	168.861883
	13.667603	44.265379	88.252359	38.244911	170.762649
	13.199668	44.424665	86.830328	38.722924	169.977917
	13.815371	42.672514	88.726370	37.926236	169.325120
	13.495206	42.672514	88.568366	36.173524	167.414404
	13.741487	42.831800	89.200380	39.678949	171.711129
	13.347437	44.265379	89.516387	39.200936	172.982702
	13.618346	43.946806	88.884373	40.156961	172.988140
	13.519834	44.902525	87.462342	39.360274	171.725140
	13.692231	45.858244	89.042377	39.360274	174.260894
	13.593718	43.787519	88.252359	40.953649	172.993527
	13.642974	46.336103	89.516387	40.634974	176.487464
	13.544462	45.061811	89.674391	39.200936	173.937138
	13.815371	44.583952	88.884373	39.041599	172.509924
	13.445949	42.831800	87.146335	39.997624	169.975759
	13.347437	43.150374	87.778349	36.810874	167.739596
	13.445949	44.902525	89.200380	40.475636	174.578541
	13.150412	45.539671	90.306405	40.156961	176.003037
	13.470577	45.539671	90.148401	41.272324	176.960396
	13.125784	45.539671	88.568366	39.997624	174.105661
	13.248924	46.176817	90.464408	41.750336	178.391561
	13.248924	47.610396	89.358384	39.838286	176.807065
	13.544462	43.309660	88.568366	38.244911	170.122937
	13.372065	46.654677	91.254426	43.184374	181.093476
	13.495206	45.061811	90.780415	38.722924	174.565150
	13.125784	47.769682	89.674391	39.838286	177.282359
	13.322809	44.265379	88.410363	38.404249	171.079990
	12.928759	44.424665	89.042377	38.722924	172.189965
	13.470577	42.831800	85.724303	37.448224	166.004327
	12.978015	48.566114	90.938419	41.431661	180.936194
	13.593718	44.743238	88.726370	41.750336	175.219944
	12.879502	44.424665	88.410363	37.448224	170.283252
	13.421321	43.628233	87.936352	39.519611	171.084196
	13.002643	45.221098	88.884373	38.882261	172.987732
	13.445949	45.221098	89.200380	41.590999	176.012477
	12.879502	45.539671	89.200380	38.882261	173.622312
	13.618346	46.176817	90.464408	40.794311	177.435536
	13.101155	43.628233	88.252359	36.810874	168.691465
	13.421321	45.380384	89.674391	40.634974	175.689749
	13.224296	45.380384	88.252359	39.360274	172.993017
	13.692231	48.406828	89.832394	40.316299	178.555521
	13.027271	43.946806	90.464408	40.634974	175.046188
	13.495206	45.539671	90.464408	38.722924	174.727002
	12.854874	44.424665	92.992464	40.475636	177.892766
	13.396693	45.698957	90.306405	39.041599	175.046961
	13.051899	46.176817	91.886440	42.069011	180.132268
	13.495206	43.946806	88.410363	38.085574	170.442742
	12.904130	46.176817	88.252359	39.519611	173.948787
	13.495206	43.628233	89.358384	40.316299	173.302915
	12.780990	44.265379	87.146335	37.766899	169.178612
	13.495206	44.106093	89.200380	38.882261	172.188734
	12.854874	44.743238	89.516387	38.244911	172.504537
	13.445949	46.336103	89.832394	40.634974	176.803471
	12.756362	43.150374	87.620345	37.129549	167.900267
	13.716859	49.521833	90.780415	42.706361	183.008610
	12.854874	43.787519	89.674391	41.431661	174.893571
	13.569090	45.061811	92.992464	38.563586	176.617862
	12.756362	44.743238	91.096422	40.316299	176.155959
	13.569090	43.787519	90.622412	38.404249	172.814180
	12.805618	46.176817	90.306405	41.112986	177.596208
	13.815371	44.743238	87.462342	39.360274	171.565854
	12.928759	47.291822	90.148401	40.634974	178.075197
	13.790743	46.495390	89.042377	43.025036	178.562803
	12.657849	45.858244	90.148401	39.360274	175.366918
	13.544462	45.858244	89.832394	40.794311	176.484949
	13.027271	45.539671	89.674391	38.722924	173.936985
	13.741487	45.858244	89.674391	39.838286	175.370921
	12.928759	45.380384	89.042377	39.200936	173.623697
	13.716859	47.132536	89.516387	39.838286	176.487209
	12.978015	43.787519	88.094356	40.953649	172.835524
	13.642974	45.539671	89.516387	39.360274	174.416332
	13.002643	45.539671	91.412429	40.156961	177.109061
	13.519834	46.495390	89.832394	39.360274	175.688058
	13.199668	46.495390	92.676457	42.706361	181.878208
	13.913884	45.698957	89.516387	39.360274	174.575618
	13.445949	47.610396	90.306405	40.316299	178.233099
	13.495206	45.380384	90.306405	41.750336	177.437125
	12.879502	42.672514	85.882306	36.173524	164.728344
	13.790743	43.468946	88.252359	38.722924	170.444229
	13.101155	45.221098	89.674391	38.563586	173.459074
	13.987768	44.424665	87.620345	38.085574	170.130584
	13.002643	43.787519	88.726370	38.085574	170.599463
	13.790743	44.583952	88.410363	36.492199	169.486513
	13.125784	44.424665	89.042377	41.112986	174.580028
	13.815371	45.061811	90.148401	38.085574	173.295786
	13.076527	42.672514	88.884373	38.882261	170.439148
	13.593718	43.628233	87.936352	38.563586	170.128171
	13.150412	45.380384	89.200380	39.519611	174.100376
	13.593718	44.583952	87.936352	39.200936	171.721240
	13.027271	46.813963	89.358384	39.838286	176.010633
	13.889256	46.495390	90.306405	43.184374	179.986168
	13.076527	45.698957	89.516387	38.722924	173.938268
	13.864628	44.743238	87.936352	39.838286	172.517877
	12.904130	45.539671	89.674391	38.404249	173.618310
	13.642974	45.061811	89.042377	39.360274	173.464461
	12.928759	43.787519	86.988331	37.607561	168.383411
	13.716859	47.132536	88.726370	39.041599	174.900504
	13.101155	43.628233	88.726370	40.794311	173.148913
	13.741487	44.743238	88.884373	37.926236	171.553848
	13.027271	43.787519	90.464408	39.360274	173.612201
	13.569090	46.176817	89.200380	38.722924	174.100121
	13.347437	43.628233	88.568366	39.678949	171.875547
	13.593718	44.424665	88.094356	38.085574	170.604595
	13.298181	44.743238	86.198314	37.766899	168.708450
	13.815371	43.787519	88.410363	40.156961	172.354843
	12.978015	45.221098	87.462342	38.404249	171.087688
	13.569090	43.628233	88.094356	38.244911	169.967500
	13.150412	44.743238	88.410363	37.607561	170.761162
	13.741487	45.061811	88.568366	39.041599	172.671776
	13.372065	42.991087	86.830328	36.810874	166.632288
	13.544462	46.973249	88.094356	38.085574	173.153179
	12.928759	46.495390	91.254426	43.184374	180.934189
	13.667603	45.380384	92.834461	39.200936	177.415781
	13.224296	42.513227	88.568366	38.404249	169.485842
	13.790743	43.628233	90.780415	38.404249	172.812897
	13.298181	44.902525	89.042377	38.404249	172.349150
	13.790743	44.424665	86.514321	38.563586	169.502572
	13.175040	44.743238	87.146335	37.448224	169.337797
	13.815371	44.424665	86.830328	40.953649	172.208642
	13.248924	45.380384	89.042377	38.882261	173.305022
	13.815371	43.946806	86.988331	37.926236	168.861373
	13.396693	44.583952	87.936352	40.475636	172.995940
	13.766115	45.221098	88.884373	38.404249	172.509720
	13.495206	44.424665	89.042377	38.085574	171.552616
	13.839999	45.858244	87.778349	36.810874	170.447466
	13.421321	44.743238	91.886440	40.475636	177.105314
	13.618346	44.902525	89.042377	38.244911	172.189813
	13.372065	47.132536	92.360450	40.953649	180.446635
	13.692231	43.468946	88.568366	39.041599	171.078911
	13.569090	46.495390	89.042377	39.678949	175.216715
	13.766115	44.583952	88.252359	38.404249	171.240560
	13.470577	44.902525	85.724303	37.448224	168.075052
	13.766115	44.743238	88.568366	41.272324	174.583928
	13.495206	44.106093	86.672324	37.288886	168.067302
	13.741487	43.946806	88.252359	38.722924	170.922089
	13.322809	43.150374	85.566300	35.854849	164.571522
	13.766115	45.061811	88.094356	38.882261	172.038428
	13.470577	45.380384	88.568366	39.200936	173.149687
	13.224296	46.336103	86.514321	37.766899	170.617323
	13.519834	46.017530	90.622412	42.865699	179.505641
	13.963140	45.380384	89.990398	38.563586	173.934368
	13.495206	43.787519	89.516387	39.360274	172.664180
	13.692231	43.150374	91.096422	38.085574	172.332369
	13.495206	46.495390	89.832394	39.360274	175.688058
	13.766115	46.017530	91.096422	39.838286	176.952238
	13.421321	46.336103	89.200380	38.722924	174.259407
	13.569090	44.265379	87.146335	41.272324	172.684037
	13.372065	45.221098	89.200380	38.085574	172.507052
	13.569090	44.583952	87.146335	38.722924	170.453210
	13.544462	45.061811	89.042377	38.882261	172.986449
	13.396693	44.902525	88.094356	37.926236	170.923117
	13.495206	45.221098	89.200380	39.360274	173.781752
	13.322809	48.088255	89.832394	39.678949	177.599598
	13.692231	43.468946	88.884373	38.722924	171.076243
	13.322809	46.017530	89.674391	39.360274	175.052194
	13.593718	44.902525	92.202447	38.563586	175.668558
	13.076527	45.539671	90.306405	41.750336	177.596412
	13.445949	45.539671	90.464408	38.404249	174.408327
	12.805618	46.813963	90.622412	41.112986	178.549361
	13.421321	44.106093	86.514321	36.970211	167.590624
	13.076527	44.902525	88.094356	39.519611	172.516492
	13.692231	44.106093	87.462342	37.926236	169.494670
	12.731733	46.176817	88.252359	39.200936	173.630112
	13.667603	43.150374	87.778349	39.997624	170.926345
	13.002643	45.858244	88.884373	38.244911	172.987528
	13.470577	44.902525	89.200380	39.360274	173.463179
	12.928759	46.336103	90.306405	37.926236	174.568744
	13.544462	44.583952	88.726370	39.200936	172.511258
	12.953387	44.902525	92.044443	38.563586	175.510554
	13.790743	43.468946	89.200380	38.882261	171.551588
	12.953387	43.946806	90.148401	40.156961	174.252168
	13.642974	44.743238	88.410363	37.607561	170.761162
	12.928759	45.539671	88.568366	39.519611	173.627648
	13.495206	46.973249	89.042377	38.882261	174.897887
	12.854874	44.265379	86.988331	41.272324	172.526034
	13.593718	45.221098	88.884373	38.244911	172.350382
	13.248924	45.698957	88.726370	39.678949	174.104276
	13.544462	44.265379	88.094356	40.316299	172.676033
	12.830246	46.017530	89.042377	38.085574	173.145481
	13.642974	44.106093	89.358384	39.041599	172.506075
	12.854874	46.495390	89.832394	38.085574	174.413358
	13.741487	45.061811	90.780415	38.085574	173.927800
	13.224296	45.539671	89.358384	39.360274	174.258328
	13.938512	46.176817	89.042377	38.085574	173.304767
	13.199668	46.336103	88.726370	40.953649	176.016122
	13.790743	46.654677	88.884373	41.431661	176.970710
	13.175040	43.946806	88.094356	38.244911	170.286072
	13.938512	46.176817	88.726370	39.519611	174.422798
	13.372065	47.291822	90.780415	40.794311	178.866549
	13.716859	44.424665	87.462342	37.926236	169.813243
	13.519834	47.291822	88.410363	39.200936	174.903121
	14.037025	44.583952	88.726370	40.475636	173.785958
	13.445949	45.698957	89.200380	38.085574	172.984911
	14.037025	44.583952	88.410363	38.085574	171.079888
	13.519834	46.495390	90.780415	36.970211	174.246016
	13.741487	46.495390	90.780415	41.112986	178.388791
	13.815371	44.106093	88.568366	36.970211	169.644670
	13.569090	42.513227	88.094356	38.085574	168.693157
	13.618346	44.583952	90.464408	41.431661	176.480021
	13.741487	42.513227	87.620345	37.288886	167.422459
	13.421321	44.106093	88.568366	38.404249	171.078707
	13.618346	45.380384	87.778349	37.129549	170.288282
	13.495206	44.583952	87.778349	40.634974	172.997274
	13.790743	45.698957	89.832394	39.678949	175.210300
	13.347437	44.743238	87.462342	39.200936	171.406516
	13.421321	47.291822	91.412429	43.184374	181.888625
	13.495206	44.583952	88.094356	36.810874	169.489181
	13.593718	43.309660	86.040310	37.766899	167.116869
	13.667603	46.495390	88.884373	36.810874	172.190637
	13.667603	45.858244	91.412429	39.678949	176.949621
	13.593718	45.698957	89.674391	39.678949	175.052297
	13.667603	45.539671	85.724303	36.651536	167.915510
	13.224296	43.787519	88.884373	40.794311	173.466204
	13.569090	44.743238	87.462342	37.926236	170.131816
	13.445949	46.176817	90.464408	40.794311	177.435536
	13.593718	45.858244	88.568366	38.244911	172.671521
	13.495206	45.858244	89.358384	38.882261	174.098889
	13.790743	45.380384	88.568366	39.041599	172.990349
	13.618346	47.610396	89.042377	39.041599	175.694370
	13.741487	44.106093	88.884373	41.112986	174.103452
	13.470577	45.698957	90.780415	39.041599	175.520971
	13.445949	44.265379	89.358384	38.722924	172.346686
	13.421321	46.176817	91.728436	41.112986	179.018239
	13.421321	44.106093	87.936352	36.810874	168.853318
	13.544462	46.176817	89.200380	39.997624	175.374820
	13.470577	50.318266	90.780415	39.519611	180.618292
	13.445949	45.858244	88.726370	41.112986	175.697600
	13.125784	45.221098	89.042377	38.244911	172.508386
	13.839999	44.583952	88.094356	39.519611	172.197919
	13.322809	46.495390	89.674391	38.882261	175.052042
	13.544462	44.902525	87.462342	37.607561	169.972428
	13.322809	45.221098	88.726370	38.722924	172.670391
	13.421321	48.406828	90.464408	40.316299	179.187535
	13.298181	46.176817	89.200380	42.228349	177.605546
	13.667603	45.858244	88.884373	37.448224	172.190841
	13.298181	46.336103	90.306405	39.838286	176.480794
	13.642974	49.840406	92.044443	39.360274	181.245123
	13.002643	44.265379	90.938419	38.085574	173.289371
	13.815371	46.017530	90.464408	39.360274	175.842212
	13.002643	46.017530	90.780415	38.563586	175.361532
	13.593718	45.380384	90.622412	41.431661	177.434457
	12.904130	46.336103	88.410363	39.200936	173.947402
	13.322809	45.380384	90.622412	40.156961	176.159757
	12.978015	47.451109	89.042377	40.794311	177.287797
	13.569090	46.495390	90.148401	38.882261	175.526052
	12.830246	46.813963	89.990398	40.316299	177.120659
	13.642974	46.336103	88.252359	38.244911	172.833373
	13.076527	44.265379	89.042377	41.431661	174.739417
	13.642974	46.176817	90.464408	38.882261	175.523486
	13.322809	44.743238	89.200380	39.041599	172.985217
	13.618346	44.106093	91.254426	39.041599	174.402117
	12.928759	45.380384	89.358384	37.288886	172.027654
	13.495206	48.247541	93.308471	41.750336	183.306349
	13.101155	46.813963	87.778349	36.173524	170.765835
	13.667603	44.265379	87.936352	38.722924	170.924655
	13.051899	47.132536	90.938419	40.475636	178.546591
	13.618346	44.424665	88.568366	39.519611	172.512642
	13.150412	44.265379	89.042377	41.112986	174.420741
	13.790743	45.221098	88.726370	38.085574	172.033041
	13.027271	47.769682	89.990398	41.431661	179.191741
	13.716859	46.336103	88.884373	37.448224	172.668700
	13.175040	45.539671	90.938419	40.794311	177.272401
	13.889256	45.698957	89.674391	38.404249	173.777597
	13.224296	45.539671	92.518454	39.360274	177.418398
	14.037025	46.336103	90.780415	40.794311	177.910829
	13.347437	43.787519	88.884373	36.014186	168.686078
	13.766115	45.061811	89.516387	38.722924	173.301122
	13.396693	48.566114	90.780415	38.722924	178.069453
	13.938512	46.654677	91.254426	42.069011	179.978113
	13.101155	45.539671	88.884373	38.244911	172.668955
	13.963140	45.539671	89.832394	39.360274	174.732339
	13.593718	46.973249	87.936352	38.085574	172.995175
	13.963140	41.716795	86.198314	35.058161	162.973270
	13.889256	44.902525	87.146335	37.926236	169.975096
	13.938512	45.858244	88.094356	37.607561	171.560161
	13.495206	46.176817	90.938419	42.228349	179.343584
	13.938512	48.406828	91.728436	40.794311	180.929575
	13.421321	46.176817	90.780415	39.997624	176.954856
	14.037025	45.061811	89.832394	39.360274	174.254479
	13.618346	45.858244	89.358384	37.129549	172.346176
	13.938512	45.380384	89.358384	39.041599	173.780367
	13.692231	48.566114	89.832394	37.129549	175.528057
	13.938512	46.495390	89.990398	40.316299	176.802086
	13.519834	46.336103	90.306405	39.200936	175.843444
	13.790743	43.787519	88.884373	38.722924	171.394816
	13.790743	44.902525	89.516387	41.112986	175.531898
	13.716859	47.291822	90.622412	39.678949	177.593183
	13.692231	44.743238	88.252359	37.766899	170.762496
	13.618346	49.203260	91.412429	39.678949	180.294638
	13.569090	44.424665	90.938419	38.085574	173.448658
	13.741487	45.539671	89.674391	39.041599	174.255660
	13.544462	48.247541	92.676457	40.953649	181.877647
	13.495206	46.017530	90.780415	41.590999	178.388944
	13.569090	46.973249	89.358384	39.200936	175.532569
	13.298181	46.176817	89.832394	39.360274	175.369484
	13.470577	46.973249	87.778349	37.766899	172.518496
	13.372065	47.928968	91.570433	40.475636	179.975037
	13.667603	46.654677	89.674391	39.678949	176.008015
	13.125784	44.583952	89.832394	39.360274	173.776620
	13.544462	44.902525	88.726370	41.590999	175.219893
	13.248924	45.061811	88.252359	37.129549	170.443719
	13.593718	46.176817	89.042377	39.041599	174.260792
	13.347437	47.610396	88.884373	38.722924	175.217692
	13.790743	43.628233	88.094356	38.404249	170.126837
	13.347437	44.743238	89.042377	37.607561	171.393176
	13.642974	44.902525	89.674391	38.882261	173.459176
	13.445949	46.495390	93.150468	40.634974	180.280831
	13.889256	45.539671	89.990398	37.766899	173.296967
	13.150412	46.495390	91.254426	39.519611	177.269427
	13.618346	49.521833	90.148401	37.607561	177.277795
	13.125784	45.539671	88.094356	39.041599	172.675625
	13.716859	45.698957	89.200380	38.882261	173.781599
	13.273552	45.698957	90.148401	40.794311	176.641670
	13.716859	48.725401	92.992464	44.299736	186.017601
	13.125784	47.610396	90.622412	39.678949	177.911756
	14.012396	46.973249	89.674391	40.316299	176.963939
	13.076527	48.247541	90.938419	39.200936	178.386896
	14.135537	46.495390	91.570433	39.678949	177.744771
	13.199668	46.176817	90.622412	39.360274	176.159502
	13.815371	44.743238	91.096422	37.607561	173.447222
	13.396693	46.813963	91.254426	42.387686	180.456075
	14.012396	46.973249	89.516387	38.563586	175.053223
	13.445949	47.610396	92.044443	40.953649	180.608487
	13.716859	48.088255	89.042377	40.316299	177.446930
	13.519834	46.654677	90.622412	38.882261	176.159349
	13.987768	45.539671	87.620345	38.722924	171.882939
	13.347437	47.451109	90.148401	39.838286	177.437796
	13.889256	43.628233	88.726370	38.563586	170.918188
	13.716859	47.451109	89.832394	39.678949	176.962451
	14.184793	44.265379	88.568366	37.448224	170.281969
	13.519834	46.495390	90.148401	39.997624	176.641415
	13.815371	45.380384	89.674391	37.766899	172.821674
	13.741487	45.380384	92.202447	38.085574	175.668405
	13.913884	45.539671	89.674391	38.244911	173.458973
	13.569090	45.698957	91.570433	41.431661	178.701051
	13.815371	46.495390	90.306405	38.563586	175.365381
	13.519834	46.495390	88.568366	39.360274	174.424030
	13.790743	48.406828	89.832394	36.970211	175.209433
	13.618346	45.539671	89.516387	38.563586	173.619644
	14.012396	46.495390	90.306405	39.200936	176.002731
	13.593718	45.539671	89.516387	39.838286	174.894344
	13.766115	46.176817	90.306405	41.909674	178.392895
	13.421321	46.813963	89.358384	38.882261	175.054608
	13.445949	46.176817	89.832394	39.200936	175.210147
	13.642974	49.043974	91.096422	39.360274	179.500670
	13.716859	45.858244	89.042377	39.838286	174.738907
	13.667603	46.654677	90.622412	39.360274	176.637362
	13.519834	46.813963	92.360450	40.316299	179.490712
	13.692231	47.451109	92.044443	43.184374	182.679926
	13.544462	46.017530	89.990398	38.563586	174.571514
	13.618346	46.336103	90.938419	39.678949	176.953470
	13.692231	47.610396	87.620345	38.882261	174.113001
	13.889256	46.336103	90.306405	37.766899	174.409407
	13.864628	45.858244	88.568366	38.722924	173.149534
	13.618346	44.265379	88.568366	37.129549	169.963294
	13.372065	45.858244	90.306405	41.431661	177.596310
	13.593718	44.265379	88.094356	36.332861	168.692596
	13.569090	44.743238	89.042377	37.607561	171.393176
	13.618346	47.291822	91.570433	41.272324	180.134579
	13.421321	46.176817	90.622412	38.244911	175.044139
	13.667603	46.336103	91.412429	38.882261	176.630794
	13.199668	46.813963	89.358384	37.448224	173.620570
	13.642974	46.017530	89.990398	40.634974	176.642901
	13.347437	46.495390	89.832394	38.882261	175.210045
	13.544462	47.451109	89.990398	40.953649	178.395155
	13.224296	46.654677	90.938419	41.590999	179.184094
	13.741487	46.336103	89.200380	38.085574	173.622057
	13.076527	45.858244	89.674391	38.722924	174.255558
	13.790743	46.176817	88.094356	35.695511	169.966684
	12.904130	43.628233	88.884373	39.041599	171.554205
	13.716859	46.336103	90.148401	38.882261	175.366766
	13.298181	44.902525	88.252359	38.085574	171.240457
	13.938512	47.610396	90.148401	39.997624	177.756420
	13.027271	45.858244	91.412429	38.882261	176.152934
	14.012396	46.176817	89.990398	38.722924	174.890138
	13.248924	46.176817	93.466475	39.360274	179.003565
	13.716859	44.902525	89.832394	40.156961	174.891880
	13.248924	46.336103	91.728436	38.882261	176.946801
	13.839999	46.336103	90.622412	39.200936	176.159451
	13.519834	49.681120	89.516387	38.404249	177.601756
	13.938512	44.265379	90.622412	37.448224	172.336014
	13.741487	46.176817	87.936352	38.722924	172.836093
	13.716859	45.380384	90.780415	38.404249	174.565048
	13.445949	46.017530	90.464408	41.590999	178.072937
	13.766115	48.088255	90.938419	40.316299	179.342972
	13.298181	46.495390	90.780415	39.200936	176.476741
	14.110909	46.495390	89.832394	38.722924	175.050708
	13.544462	47.451109	92.360450	40.156961	179.968520
	13.987768	45.061811	91.728436	37.926236	174.716484
	13.569090	49.203260	92.360450	40.316299	181.880009
	14.258678	45.698957	92.518454	39.838286	178.055697
	13.618346	46.654677	90.306405	39.041599	176.002679
	13.815371	45.221098	88.252359	38.244911	171.718368
	13.692231	48.566114	91.886440	42.069011	182.521565
	13.692231	46.176817	88.252359	37.607561	172.036737
	13.790743	47.451109	91.412429	40.156961	179.020499
	13.987768	46.654677	89.358384	37.288886	173.301946
	13.445949	46.973249	91.254426	40.794311	179.021986
	13.913884	47.610396	91.254426	40.156961	179.021782
	13.815371	44.583952	90.464408	38.085574	173.133934
	14.209421	46.176817	90.464408	40.475636	177.116861
	14.037025	46.176817	92.202447	38.085574	176.464837
	13.987768	46.336103	90.622412	39.360274	176.318789
	13.544462	49.203260	93.150468	40.156961	182.510689
	13.815371	46.973249	91.570433	39.838286	178.381968
	13.913884	47.928968	90.622412	40.316299	178.867679
	13.864628	45.698957	90.306405	38.882261	174.887623
	13.790743	49.840406	92.044443	44.140399	186.025248
	13.938512	48.566114	92.518454	40.475636	181.560204
	13.790743	47.291822	90.622412	39.678949	177.593183
	13.839999	48.884687	90.938419	38.404249	178.227354
	14.086281	45.380384	90.148401	39.041599	174.570384
	13.766115	48.566114	91.886440	40.634974	181.087528
	13.938512	45.061811	89.832394	38.085574	172.979779
	13.815371	45.698957	88.884373	39.997624	174.580954
	13.790743	46.017530	90.464408	38.404249	174.886187
	13.839999	46.973249	92.676457	40.156961	179.806667
	13.790743	46.654677	90.306405	38.404249	175.365330
	13.692231	46.973249	93.782482	41.750336	182.506067
	14.357190	46.336103	90.780415	38.882261	175.998779
	13.445949	46.813963	91.096422	39.519611	177.429996
	13.938512	47.451109	90.938419	41.909674	180.299201
	13.347437	44.743238	88.094356	36.332861	169.170455
	13.790743	46.495390	90.464408	38.882261	175.842059
	13.347437	46.813963	90.148401	37.766899	174.729263
	13.716859	44.902525	89.832394	38.244911	172.979830
	13.544462	46.973249	91.096422	39.838286	177.907958
	13.495206	45.698957	90.464408	39.360274	175.523639
	13.519834	47.451109	90.622412	40.794311	178.867832
	14.160165	46.495390	91.412429	38.085574	175.993393
	13.544462	47.132536	91.570433	40.316299	179.019267
	13.913884	48.406828	90.148401	40.634974	179.190202
	13.987768	45.221098	90.938419	38.404249	174.563765
	13.593718	45.061811	88.568366	37.926236	171.556414
	13.692231	48.406828	92.834461	41.112986	182.354275
	13.593718	45.221098	89.358384	40.475636	175.055118
	14.086281	45.380384	89.042377	37.607561	172.030322
	13.470577	46.973249	90.464408	39.519611	176.957268
	14.061653	47.132536	88.094356	37.926236	173.153128
	13.716859	45.698957	90.464408	37.766899	173.930264
	13.790743	45.380384	89.358384	38.404249	173.143017
	13.470577	44.265379	89.674391	37.607561	171.547331
	13.839999	46.495390	91.728436	40.953649	179.177475
	13.593718	46.495390	91.412429	39.041599	176.949418
	13.815371	45.539671	91.728436	38.244911	175.513018
	13.396693	46.813963	90.622412	37.607561	175.043936
	14.061653	45.221098	90.938419	38.882261	175.041777
	13.963140	49.681120	93.624478	41.909674	185.215272
	13.716859	46.654677	89.200380	39.200936	175.055993
	13.741487	48.566114	91.412429	41.590999	181.569542
	13.790743	46.176817	89.042377	38.085574	173.304767
	13.815371	46.336103	90.306405	39.360274	176.002782
	13.938512	44.583952	88.568366	36.492199	169.644517
	13.766115	44.424665	89.200380	38.404249	172.029294
	13.790743	46.973249	90.780415	39.678949	177.432613
	13.470577	44.106093	89.042377	37.448224	170.596693
	13.741487	46.336103	89.832394	39.838286	176.006784
	13.692231	49.203260	96.310537	40.794311	186.308109
	13.889256	50.158980	93.782482	42.069011	186.010472
	13.372065	47.610396	91.728436	38.882261	178.221093
	13.839999	45.380384	90.780415	38.244911	174.405710
	13.618346	45.858244	88.252359	38.404249	172.514852
	13.470577	45.698957	90.464408	39.041599	175.204964
	13.692231	46.495390	88.568366	40.953649	176.017405
	13.519834	46.813963	90.780415	39.041599	176.635977
	13.544462	46.495390	90.148401	39.678949	176.322740
	13.593718	48.884687	89.200380	39.678949	177.764016
	13.495206	45.380384	90.306405	37.766899	173.453688
	13.593718	46.495390	90.938419	39.360274	176.794082
	13.618346	45.221098	91.254426	38.244911	174.720435
	13.495206	44.424665	93.150468	39.360274	176.935406
	13.938512	46.336103	90.780415	38.882261	175.998779
	13.421321	46.336103	92.044443	39.200936	177.581482
	13.815371	47.132536	89.990398	40.794311	177.917245
	12.953387	44.902525	88.726370	37.926236	171.555131
	13.987768	45.061811	89.200380	37.766899	172.029090
	13.224296	46.495390	88.884373	37.926236	173.305999
	13.618346	45.698957	90.464408	39.997624	176.160989
	13.199668	48.566114	92.202447	40.794311	181.562872
	13.642974	46.495390	89.516387	39.200936	175.212713
	13.175040	49.362547	89.990398	39.678949	179.031893
	13.741487	45.539671	89.990398	38.085574	173.615642
	13.002643	47.610396	91.412429	39.838286	178.861111
	13.618346	45.380384	89.832394	38.722924	173.935702
	13.273552	46.017530	89.200380	39.838286	175.056197
	13.889256	46.495390	91.728436	38.404249	176.628075
	13.101155	47.132536	91.570433	39.997624	178.700592
	13.716859	45.061811	90.306405	35.854849	171.223065
	13.667603	44.902525	89.674391	37.448224	172.025139
	13.815371	45.698957	88.884373	38.404249	172.987579
	13.175040	45.221098	90.148401	38.722924	174.092423
	13.839999	47.132536	90.780415	42.228349	180.141300
	13.175040	46.017530	89.674391	38.244911	173.936832
	13.889256	45.539671	89.042377	38.404249	172.986296
	13.298181	49.521833	90.306405	40.316299	180.144537
	14.061653	47.610396	92.044443	38.404249	178.059087
	13.347437	47.291822	90.938419	39.678949	177.909190
	13.913884	44.265379	90.306405	37.288886	171.860670
	13.445949	44.424665	90.622412	38.404249	173.451325
	14.160165	46.176817	90.148401	38.563586	174.888804
	13.396693	44.424665	88.252359	36.810874	169.487898
	13.790743	47.451109	90.464408	41.112986	179.028503
	13.372065	45.380384	88.726370	38.244911	172.351665
	14.258678	46.017530	89.832394	39.200936	175.050860
	13.125784	45.858244	89.358384	37.448224	172.664851
	14.086281	46.017530	89.990398	39.200936	175.208864
	13.372065	46.654677	89.990398	38.882261	175.527335
	13.913884	45.698957	89.674391	38.404249	173.777597
	13.741487	49.043974	91.254426	42.069011	182.367411
	13.987768	45.380384	92.044443	37.607561	175.032388
	13.396693	46.813963	91.096422	39.360274	177.270659
	14.012396	45.221098	91.728436	37.448224	174.397758
	13.618346	45.858244	90.938419	39.200936	175.997599
	13.938512	46.495390	92.360450	38.722924	177.578764
	13.224296	45.539671	89.516387	38.404249	173.460307
	14.184793	47.291822	91.570433	40.794311	179.656566
	13.421321	45.698957	90.622412	38.244911	174.566280
	13.741487	47.291822	90.464408	40.156961	177.913192
	13.322809	44.902525	89.832394	37.607561	172.342480
	13.963140	46.336103	88.726370	40.953649	176.016122
	13.421321	47.132536	91.412429	39.519611	178.064576
	13.544462	46.495390	90.780415	39.360274	176.636078
	13.175040	49.521833	90.780415	40.156961	180.459209
	13.741487	42.035368	88.568366	36.332861	166.936595
	13.544462	43.468946	88.252359	36.492199	168.213504
	13.642974	44.743238	90.780415	37.288886	172.812540
	13.445949	45.698957	93.782482	39.997624	179.479062
	13.987768	46.813963	90.938419	39.041599	176.793980
	13.322809	46.973249	92.518454	39.838286	179.329989
	13.938512	47.769682	90.622412	41.431661	179.823755
	13.175040	46.176817	89.990398	39.041599	175.208813
	13.815371	46.495390	90.780415	39.200936	176.476741
	13.322809	44.743238	87.304338	36.492199	168.539775
	14.135537	46.017530	90.938419	39.838286	176.794235
	13.248924	47.451109	90.938419	39.997624	178.387151
	14.184793	46.176817	89.674391	38.882261	174.733468
	13.593718	47.769682	89.200380	39.678949	176.649011
	14.209421	45.380384	90.622412	37.129549	173.132345
	13.224296	46.017530	90.306405	38.722924	175.046859
	13.963140	45.858244	92.992464	37.766899	176.617606
	13.150412	46.654677	92.676457	39.678949	179.010082
	14.135537	46.973249	92.044443	39.997624	179.015316
	13.421321	46.813963	91.412429	38.882261	177.108653
	13.963140	46.495390	88.726370	40.316299	175.538058
	13.421321	46.495390	90.938419	39.041599	176.475407
	14.258678	46.973249	89.832394	39.678949	176.484592
	13.298181	47.451109	90.622412	40.156961	178.230481
	14.110909	45.698957	90.306405	38.085574	174.090936
	13.396693	47.610396	90.938419	40.634974	179.183788
	14.037025	46.495390	90.780415	39.360274	176.636078
	13.692231	49.999693	92.518454	42.865699	185.383845
	14.258678	46.176817	91.096422	38.404249	175.677487
	13.839999	47.132536	93.308471	40.156961	180.597968
	14.086281	44.902525	91.412429	38.085574	174.400528
	13.913884	45.539671	92.676457	39.360274	177.576402
	13.815371	45.061811	89.042377	37.926236	172.030424
	13.741487	48.247541	93.150468	40.316299	181.714308
	13.913884	47.928968	90.938419	41.590999	180.458386
	13.741487	44.265379	90.148401	36.970211	171.383991
	13.790743	46.495390	90.780415	39.519611	176.795416
	13.642974	47.610396	91.412429	40.156961	179.179786
	13.569090	46.654677	91.728436	39.997624	178.380736
	13.593718	47.769682	91.096422	40.634974	179.501078
	13.421321	46.017530	89.832394	39.200936	175.050860
	13.790743	51.433271	93.308471	43.184374	187.926116
	13.175040	45.380384	89.042377	37.766899	172.189660
	13.766115	46.495390	90.622412	39.041599	176.159400
	13.125784	44.743238	91.886440	38.244911	174.874589
	13.987768	46.973249	92.202447	39.997624	179.173320
	12.928759	47.291822	91.412429	40.156961	178.861212
	14.012396	45.221098	89.832394	37.448224	172.501716
	13.273552	47.928968	89.990398	41.112986	179.032352
	14.160165	45.061811	89.674391	37.926236	172.662438
	13.027271	47.769682	91.412429	40.794311	179.976422
	13.913884	48.406828	91.412429	40.634974	180.454230
	13.027271	45.858244	90.306405	38.404249	174.568897
	13.741487	46.176817	90.148401	38.882261	175.207479
	13.101155	45.858244	90.622412	38.563586	175.044241
	13.839999	46.176817	90.780415	41.112986	178.070218
	13.076527	45.539671	90.464408	38.244911	174.248990
	13.913884	45.539671	91.412429	38.085574	175.037674
	13.125784	49.043974	90.622412	40.794311	180.460697
	13.741487	44.265379	88.252359	36.651536	169.169274
	13.298181	46.176817	90.148401	38.563586	174.888804
	13.913884	42.353941	86.356317	35.217499	163.927757
	13.298181	44.902525	89.674391	38.244911	172.821826
	13.987768	44.902525	88.568366	37.448224	170.919115
	13.495206	46.495390	90.622412	39.360274	176.478075
	14.209421	45.858244	88.252359	39.678949	173.789552
	13.692231	44.743238	89.516387	37.448224	171.707849
	13.938512	44.743238	88.884373	37.129549	170.757160
	13.544462	44.902525	88.884373	38.244911	172.031809
	14.209421	47.291822	89.674391	40.316299	177.282511
	13.519834	45.221098	90.780415	37.607561	173.609074
	14.061653	43.946806	88.568366	36.970211	169.485383
	13.741487	46.495390	95.046509	40.156961	181.698860
	13.889256	44.265379	90.464408	37.607561	172.337348
	13.593718	45.539671	91.728436	39.041599	176.309706
	13.642974	44.424665	89.516387	37.129549	171.070601
	13.716859	46.495390	88.568366	39.200936	174.264692
	13.987768	46.495390	91.570433	39.519611	177.585434
	13.839999	46.654677	89.516387	39.200936	175.372000
	13.618346	47.928968	90.464408	41.590999	179.984375
	13.692231	46.973249	91.728436	39.678949	178.380634
	13.716859	45.061811	87.936352	38.085574	171.083737
	13.495206	46.176817	91.096422	38.722924	175.996162
	13.396693	45.858244	91.728436	40.634974	178.221654
	13.716859	48.088255	92.676457	40.634974	181.399686
	13.125784	46.017530	93.624478	39.041599	178.683607
	13.445949	49.681120	91.254426	41.272324	182.207869
	13.248924	44.902525	90.622412	38.085574	173.610510
	13.815371	45.061811	89.990398	38.244911	173.297120
	13.224296	43.150374	88.568366	36.810874	168.529613
	13.445949	45.221098	90.148401	38.085574	173.455073
	13.298181	45.061811	88.568366	38.404249	172.034426
	13.544462	46.176817	90.938419	38.882261	175.997497
	13.076527	49.521833	92.360450	42.865699	184.747982
	13.569090	43.628233	88.094356	36.492199	168.214787
	12.953387	47.132536	91.886440	40.156961	179.175937
	13.938512	43.787519	90.464408	36.651536	170.903463
	12.830246	49.681120	92.044443	40.475636	182.201199
	13.913884	45.221098	92.992464	37.607561	175.821123
	13.027271	46.973249	91.886440	40.156961	179.016650
	13.889256	48.406828	92.044443	40.634974	181.086244
	13.470577	47.769682	93.466475	40.634974	181.871130
	13.963140	46.654677	90.148401	39.997624	176.800701
	13.199668	45.698957	91.096422	37.766899	174.562278
	14.086281	46.495390	89.358384	39.360274	175.214047
	13.544462	46.495390	91.254426	39.360274	177.110089
	13.938512	43.150374	87.146335	36.492199	166.788907
	13.445949	46.495390	90.148401	40.156961	176.800752
	13.913884	44.424665	88.884373	37.129549	170.438587
	13.544462	44.424665	88.726370	37.607561	170.758596
	13.692231	44.902525	90.464408	37.288886	172.655819
	13.618346	49.681120	95.678523	42.706361	188.066005
	13.593718	43.628233	88.726370	36.810874	169.165476
	13.987768	48.566114	94.572499	41.590999	184.729612
	13.692231	48.247541	90.306405	40.316299	178.870245
	13.372065	44.743238	89.990398	37.607561	172.341197
	13.839999	46.176817	90.780415	39.200936	176.158168
	13.396693	42.672514	87.620345	36.970211	167.263070
	13.396693	44.743238	90.622412	38.244911	173.610561
	13.396693	47.291822	91.254426	39.997624	178.543871
	13.445949	45.698957	90.464408	38.404249	174.567614
	13.322809	46.813963	89.516387	40.794311	177.124661
	13.248924	45.858244	91.570433	39.360274	176.788950
	13.421321	46.654677	91.728436	39.519611	177.902724
	13.519834	45.380384	93.150468	39.041599	177.572451
	13.495206	43.946806	90.148401	36.651536	170.746743
	13.248924	43.468946	89.674391	36.810874	169.954211
	13.199668	46.813963	91.886440	39.360274	178.060676
	13.150412	47.769682	90.464408	41.431661	179.665751
	13.298181	46.176817	91.254426	39.041599	176.472841
	13.224296	43.946806	87.462342	36.970211	168.379359
	13.273552	46.973249	91.254426	41.112986	179.340661
	13.150412	44.583952	90.148401	38.085574	172.817926
	13.421321	46.017530	89.674391	38.722924	174.414844
	13.076527	45.380384	90.148401	37.607561	173.136347
	13.470577	47.451109	90.938419	40.316299	178.705826
	13.175040	44.265379	90.306405	37.766899	172.338682
	13.445949	45.698957	91.096422	39.041599	175.836978
	13.322809	44.106093	89.832394	38.244911	172.183398
	13.569090	44.265379	91.254426	37.607561	173.127366
	13.298181	45.858244	91.254426	39.200936	176.313606
	13.470577	45.698957	92.202447	38.563586	176.464990
	13.347437	47.928968	89.516387	40.156961	177.602317
	13.569090	47.132536	93.308471	40.316299	180.757306
	13.125784	46.176817	90.622412	39.360274	176.159502
	13.692231	44.424665	90.148401	39.838286	174.411353
	12.953387	47.132536	92.834461	40.316299	180.283295
	13.519834	46.813963	91.254426	39.997624	178.066012
	12.830246	46.973249	92.202447	39.360274	178.535970
	13.839999	46.495390	91.096422	38.722924	176.314736
	13.199668	46.176817	92.202447	39.041599	177.420862
	13.815371	46.813963	91.728436	39.519611	178.062010
	13.273552	47.610396	92.676457	41.750336	182.037189
	13.963140	45.539671	91.412429	38.404249	175.356349
	13.322809	45.539671	89.990398	38.882261	174.412330
	13.913884	45.380384	91.096422	37.607561	174.084368
	13.273552	46.813963	89.832394	40.156961	176.803318
	13.642974	46.176817	91.412429	39.519611	177.108857
	13.396693	45.539671	90.464408	38.722924	174.727002
	13.889256	47.928968	89.200380	40.634974	177.764322
	13.224296	44.583952	90.780415	38.244911	173.609278
	13.766115	44.583952	90.622412	38.244911	173.451275
	13.199668	43.787519	90.622412	37.129549	171.539479
	13.987768	45.061811	90.780415	37.926236	173.768463
	13.101155	45.698957	91.412429	39.200936	176.312323
	13.913884	45.061811	92.202447	38.722924	175.987182
	13.347437	45.221098	90.780415	40.794311	176.795824
	13.864628	46.336103	95.678523	39.678949	181.693576
	13.445949	46.336103	92.360450	39.997624	178.694177
	13.642974	45.539671	92.992464	39.041599	177.573734
	13.495206	46.654677	91.412429	40.634974	178.702079
	13.741487	47.132536	91.570433	41.750336	180.453305
	13.445949	47.610396	93.782482	42.387686	183.780563
	13.618346	49.203260	93.308471	46.052449	188.564180
	13.002643	47.451109	95.362517	45.415099	188.228724
	13.396693	53.344709	99.470607	51.151249	203.966566
	12.682477	50.318266	101.998664	54.337999	206.654928
	12.731733	52.229704	104.368716	58.162099	214.760519
	12.165286	54.459715	107.844793	64.216924	226.521432
	11.992889	57.486158	111.952884	70.590423	240.029466
	10.983136	60.034742	114.954951	77.919949	252.909641
	10.884624	56.530439	114.954951	78.557299	250.042688
	10.810739	61.468321	119.537052	86.683511	267.688884
	10.219664	60.512602	120.801080	90.348274	271.661956
	10.244292	59.556883	120.327070	89.710923	269.594876
	9.850242	61.309034	122.855126	93.694361	277.858521
	9.357679	61.309034	122.855126	94.491049	278.655209
	8.939001	62.105467	120.959084	95.128399	278.192949
	8.668092	61.149748	120.959084	93.216349	275.325180
	8.150901	58.282591	119.221045	91.782311	269.285947
	8.298670	56.371153	118.747034	90.188936	265.307123
	7.682966	53.981855	115.902972	85.727486	255.612313
	7.904619	52.866850	112.584898	83.018749	248.470497
	7.362801	50.955412	113.058909	79.353986	243.368307
	7.682966	51.592558	108.160800	79.194648	238.948006
	6.993379	46.654677	105.474741	72.343136	224.472553
	7.461313	45.858244	101.998664	70.112411	217.969318
	6.574700	45.061811	100.102621	66.925661	212.090094
	7.510569	42.194654	95.520520	61.986199	199.701373
	6.328419	40.283216	92.360450	60.074149	192.717815
	7.018007	35.186048	88.568366	53.063299	176.817713
	6.599328	38.690351	88.726370	55.453361	182.870082
	7.461313	35.026762	86.830328	51.151249	173.008338
	6.500816	35.345335	86.198314	49.557874	171.101522
	7.116519	32.000318	84.934286	47.327149	164.261752
	6.599328	30.407453	81.458208	42.706361	154.572023
	6.968750	31.522459	84.460275	42.865699	158.848433
	6.131394	28.814589	79.246160	39.360274	147.421021
	7.042635	31.841032	81.142202	42.387686	155.370920
	6.500816	29.451735	79.720170	40.794311	149.966216
	6.919494	29.133161	77.666125	40.156961	146.956247
	6.525444	28.655302	78.614146	42.069011	149.338459
	6.968750	29.451735	77.824128	40.794311	148.070174
	6.377675	28.814589	78.456142	41.909674	149.180404
	6.697841	31.044600	81.300205	44.618411	156.963216
	6.377675	32.637465	80.984198	48.123836	161.745499
	6.303791	30.407453	82.722237	48.442511	161.572201
	6.328419	32.159605	85.724303	51.629261	169.513169
	6.476188	32.796751	86.198314	56.728061	175.723126
	6.008253	32.318891	88.726370	57.046736	178.091997
	6.377675	34.867475	90.622412	61.667524	187.157411
	5.761972	36.301054	92.518454	64.057586	192.877094
	6.205278	35.504621	90.938419	64.694936	191.137976
	5.663459	36.938200	93.308471	69.953074	200.199745
	5.712716	38.212492	96.152534	72.502473	206.867500
	5.491063	38.690351	95.204513	75.529886	209.424751
	5.761972	37.734632	97.574566	74.573861	209.883059
	5.047756	38.690351	97.574566	76.167236	212.432153
	5.121641	38.212492	96.784548	74.733199	209.730238
	5.170897	42.672514	98.048576	78.079286	218.800376
	5.244781	36.778913	95.678523	74.573861	207.031298
	4.998500	36.778913	95.678523	73.617836	206.075273
	4.826103	32.956038	94.730503	73.139824	200.826364
	4.752219	34.867475	93.150468	69.953074	197.971017
	4.776847	34.230329	93.308471	69.475061	197.013862
	4.949244	33.433897	91.412429	67.244336	192.090662
	4.752219	34.071043	91.886440	66.925661	192.883143
	4.850731	30.885313	88.884373	64.694936	184.464622
	4.259656	31.044600	87.778349	63.420236	182.243184
	4.653706	32.159605	89.042377	66.766323	187.968305
	4.456681	28.973875	85.092289	59.914811	173.980975
	4.530565	30.088881	86.040310	61.030174	177.159364
	4.235028	28.973875	84.302272	58.799449	172.075595
	4.432053	30.248167	83.196247	59.118124	172.562538
	4.308912	27.221723	84.302272	58.799449	170.323444
	4.259656	29.611021	85.408296	60.711499	175.730816
	4.530565	26.266004	84.302272	61.348849	171.917125
	4.382797	25.310286	84.460275	57.684086	167.454647
	3.717837	29.929594	86.514321	62.623548	179.067463
	4.456681	28.496015	83.986265	60.552161	173.034441
	3.816350	30.407453	86.198314	62.304874	178.910641
	4.235028	28.177443	84.776282	63.579574	176.533298
	3.619325	28.336729	86.040310	63.579574	177.956613
	4.259656	31.044600	88.094356	69.475061	188.614016
	4.087259	29.292448	87.620345	66.128974	183.041766
	4.259656	29.611021	87.304338	66.606986	183.522345
	3.791721	28.655302	87.620345	67.563011	183.838658
	4.259656	30.407453	89.200380	67.244336	186.852170
	3.570068	29.929594	91.886440	68.837711	190.653745
	4.259656	32.000318	91.886440	71.068436	194.955194
	3.570068	34.389616	92.834461	72.183799	199.407875
	4.161143	28.814589	89.200380	68.837711	186.852680
	3.717837	29.133161	87.146335	68.678374	184.957870
	4.259656	28.973875	89.200380	70.112411	188.286666
	3.619325	30.088881	86.514321	67.244336	183.847537
	4.161143	27.540297	87.146335	67.084999	181.771630
	3.176018	27.699583	85.408296	66.766323	179.874203
	4.185772	26.743864	85.408296	67.563011	179.715171
	3.422299	27.699583	85.250293	66.128974	179.078849
	4.111887	27.699583	86.040310	66.447648	180.187542
	3.446928	27.221723	85.408296	64.854274	177.484293
	4.185772	28.973875	84.302272	65.491624	178.767770
	3.323787	25.788145	85.092289	65.491624	176.372058
	3.964118	28.655302	88.410363	66.766323	183.831988
	3.545440	25.788145	84.776282	66.606986	177.171413
	3.914862	24.832426	86.514321	64.854274	176.201020
	3.299159	26.903150	85.882306	66.447648	179.233105
	4.087259	23.398847	82.248226	65.172949	170.820022
	3.496184	26.584578	85.408296	65.172949	177.165822
	4.038003	26.266004	84.460275	65.969636	176.695915
	3.323787	27.062437	85.724303	65.332286	178.119026
	3.767093	26.903150	83.512254	65.650961	176.066366
	3.373043	26.425291	86.198314	67.244336	179.867941
	3.791721	27.062437	86.356317	67.403673	180.822428
	3.471556	26.106718	87.146335	69.475061	182.728114
	3.570068	27.381010	86.672324	66.766323	180.819658
	3.520812	28.655302	88.568366	68.837711	186.061379
	3.767093	26.584578	85.724303	65.810299	178.119179
	3.545440	30.885313	86.988331	68.997049	186.870693
	3.742465	25.469572	86.040310	67.563011	179.072893
	3.570068	28.018156	87.936352	68.837711	184.792219
	3.742465	25.947432	85.882306	69.634399	181.464136
	3.397671	27.221723	84.460275	66.766323	178.448322
	3.742465	26.743864	86.356317	68.041024	181.141205
	3.003621	26.743864	84.302272	67.084999	178.131134
	3.594696	28.496015	86.514321	69.475061	184.485397
	3.028249	25.788145	84.934286	67.084999	177.807429
	3.545440	25.150999	83.512254	66.288311	174.951564
	3.102134	26.903150	85.882306	69.315723	182.101180
	3.742465	27.858870	85.566300	66.606986	180.032155
	3.077506	25.788145	86.198314	68.041024	180.027482
	3.693209	25.628858	87.778349	66.925661	180.332868
	3.249903	26.743864	85.724303	69.634399	182.102566
	3.742465	24.354567	86.672324	67.244336	178.271227
	3.299159	25.788145	85.408296	67.403673	178.600115
	3.643953	26.106718	85.250293	70.590423	181.947434
	3.200646	26.106718	86.198314	67.244336	179.549368
	3.643953	26.743864	84.302272	67.881686	178.927822
	3.151390	27.062437	86.356317	67.563011	180.981765
	3.496184	26.743864	84.618279	66.766323	178.128466
	3.274531	24.354567	83.354251	66.766323	174.475141
	3.570068	24.673140	84.144268	66.606986	175.424394
	3.028249	23.717420	85.092289	68.041024	176.850733
	3.422299	28.177443	88.252359	69.953074	186.382875
	3.176018	25.628858	88.252359	68.200361	182.081578
	3.496184	24.991712	85.092289	67.563011	177.647013
	3.373043	29.451735	86.830328	68.678374	184.960436
	3.446928	27.540297	87.304338	70.271749	185.116383
	3.151390	24.035993	82.880240	65.810299	172.726532
	3.545440	26.903150	86.672324	71.227774	184.803248
	3.052878	23.876707	84.144268	67.244336	175.265311
	3.545440	26.106718	84.934286	68.519036	179.560040
	3.274531	26.106718	85.092289	68.837711	180.036718
	3.520812	26.903150	84.618279	67.563011	179.084440
	3.176018	25.150999	85.408296	68.519036	179.078331
	3.299159	24.354567	83.828261	66.606986	174.789814
	3.126762	25.150999	85.408296	70.590423	181.149719
	3.545440	25.469572	87.620345	67.084999	180.174915
	3.176018	26.106718	86.356317	68.997049	181.460083
	3.422299	24.673140	85.724303	66.288311	176.685754
	3.225274	27.062437	84.460275	66.606986	178.129698
	3.348415	23.080275	82.880240	66.925661	172.886176
	2.905109	26.903150	87.146335	69.156386	183.205871
	3.397671	20.053831	80.668191	66.606986	167.329008
	3.126762	28.496015	89.832394	72.343136	190.671546
	3.348415	27.540297	86.514321	70.271749	184.326366
	2.855852	24.991712	84.302272	69.953074	179.247058
	3.471556	25.469572	83.828261	66.447648	175.745481
	2.831224	24.354567	85.882306	67.244336	177.481209
	3.151390	24.991712	85.250293	66.288311	176.530316
	2.929737	25.628858	87.620345	67.881686	181.130889
	3.249903	23.558134	84.460275	66.447648	174.466057
	2.905109	23.717420	84.618279	66.925661	175.261360
	3.299159	23.398847	84.302272	69.156386	176.857505
	2.880481	28.018156	85.408296	69.156386	182.582838
	3.471556	24.354567	84.934286	67.881686	177.170538
	2.905109	24.832426	83.038244	67.244336	175.115005
	3.225274	23.717420	84.302272	68.519036	176.538728
	2.781968	24.195280	84.776282	68.041024	177.012585
	2.781968	25.628858	85.092289	68.678374	179.399521
	2.757340	24.354567	84.460275	68.997049	177.811890
	3.102134	24.991712	83.828261	66.288311	175.108285
	2.658827	23.876707	84.934286	67.881686	176.692678
	2.978993	24.195280	84.144268	66.288311	174.627859
	2.708084	26.584578	86.988331	71.705786	185.278695
	3.643953	24.513853	86.040310	67.881686	178.435849
	2.954365	25.150999	85.250293	68.519036	178.920327
	3.102134	24.673140	85.566300	67.403673	177.643113
	2.954365	27.699583	84.460275	67.084999	179.244857
	3.052878	23.398847	84.618279	67.563011	175.580137
	2.732712	26.266004	85.566300	68.359698	180.192003
	2.855852	24.354567	84.460275	69.953074	178.767915
	2.609571	23.876707	84.460275	67.881686	176.218668
	2.535687	25.150999	84.618279	68.519036	178.288314
	2.560315	24.673140	84.144268	69.634399	178.451806
	2.806596	25.947432	84.460275	66.606986	177.014692
	2.560315	24.195280	84.144268	68.041024	176.380572
	2.461802	21.487409	81.616212	62.782886	165.886508
	2.905109	26.266004	86.198314	68.359698	180.824016
	2.535687	24.195280	84.934286	68.519036	177.648602
	2.461802	25.150999	84.302272	68.041024	177.494294
	2.486431	25.469572	84.934286	71.227774	181.631631
	2.511059	26.743864	83.670258	68.041024	178.455145
	2.412546	24.991712	84.618279	68.678374	178.288364
	2.609571	24.354567	84.144268	67.563011	176.061846
	2.683456	26.743864	84.144268	68.200361	179.088493
	2.732712	24.035993	83.354251	71.068436	178.458680
	2.363290	24.035993	83.354251	67.084999	174.475243
	2.732712	23.876707	85.250293	70.749761	179.876760
	2.437174	23.239561	86.514321	67.244336	176.998218
	2.560315	23.876707	83.986265	67.563011	175.425983
	2.486431	26.903150	89.042377	70.590423	186.535951
	2.535687	22.443129	81.458208	63.898249	167.799586
	2.215521	23.239561	83.038244	67.403673	173.681478
	2.387918	23.717420	83.670258	66.606986	173.994664
	2.264777	24.195280	83.196247	69.475061	176.866588
	2.683456	24.195280	84.144268	67.403673	175.743222
	2.043124	25.628858	85.092289	70.431086	181.152234
	2.412546	23.717420	83.196247	67.084999	173.998666
	2.264777	25.310286	84.302272	69.475061	179.087618
	2.437174	21.646696	83.354251	67.403673	172.404620
	1.993868	24.354567	83.986265	68.519036	176.859867
	2.609571	24.354567	83.512254	70.749761	178.616582
	2.067752	26.903150	85.250293	68.519036	180.672479
	2.363290	24.354567	85.724303	69.475061	179.553931
	2.240149	25.310286	85.566300	67.881686	178.758271
	2.683456	24.195280	87.778349	68.359698	180.333327
	1.944612	23.558134	84.776282	68.519036	176.853452
	2.264777	24.354567	86.356317	68.200361	178.911245
	1.969240	25.150999	85.408296	71.227774	181.787069
	2.560315	28.655302	83.196247	68.359698	180.211248
	2.092380	24.832426	85.092289	69.475061	179.399776
	2.461802	25.788145	83.828261	69.793736	179.410142
	2.166265	24.673140	84.934286	69.156386	178.763811
	2.461802	22.283842	83.354251	68.041024	173.679116
	1.919983	24.673140	83.828261	69.315723	177.817124
	2.314034	25.947432	86.988331	73.617836	186.553599
	2.634199	25.947432	86.672324	69.634399	182.254154
	2.363290	24.195280	84.460275	68.678374	177.333929
	2.264777	24.832426	88.094356	69.793736	182.720518
	2.658827	26.584578	85.408296	68.041024	180.033897
	2.240149	26.106718	88.410363	71.227774	185.744854
	2.289405	22.920988	83.670258	66.766323	173.357569
	1.919983	24.195280	83.196247	69.634399	177.025925
	2.363290	26.743864	87.778349	71.705786	186.227999
	2.018496	25.947432	84.776282	70.431086	181.154800
	2.314034	23.876707	84.302272	71.227774	179.406752
	1.846099	27.381010	84.934286	68.837711	181.153007
	2.412546	24.354567	84.776282	69.793736	178.924585
	1.919983	23.717420	83.986265	67.403673	175.107359
	2.387918	22.602415	86.356317	69.475061	178.433793
	2.043124	23.876707	85.092289	69.156386	178.125382
	2.314034	24.354567	88.252359	69.475061	182.081987
	1.870727	24.354567	85.250293	70.271749	179.876608
	2.412546	25.628858	86.040310	67.881686	179.550855
	1.969240	22.443129	83.828261	68.519036	174.790425
	2.363290	23.876707	83.670258	67.403673	174.950638
	2.018496	24.354567	85.092289	70.909098	180.355954
	2.289405	24.832426	82.564233	67.722348	175.119008
	2.018496	22.920988	83.196247	68.041024	174.158258
	2.511059	23.876707	83.196247	70.431086	177.504040
	2.117009	26.584578	83.354251	67.722348	177.661177
	2.584943	24.832426	85.724303	70.590423	181.147153
	2.092380	23.080275	83.828261	67.084999	173.993534
	2.658827	22.443129	83.986265	69.315723	175.745116
	1.870727	21.805983	86.040310	67.084999	174.931291
	2.437174	21.805983	82.564233	66.447648	170.817864
	2.043124	24.673140	86.040310	71.227774	181.941223
	2.363290	24.354567	83.354251	66.925661	174.634478
	2.190893	23.717420	83.512254	68.997049	176.226723
	2.560315	23.876707	84.144268	68.200361	176.221336
	1.796843	23.558134	82.722237	68.041024	174.321394
	2.240149	22.920988	83.670258	68.200361	174.791607
	1.698330	24.035993	83.670258	68.200361	175.906612
	2.314034	24.832426	84.302272	71.387111	180.521809
	2.387918	26.743864	84.776282	68.997049	180.517195
	2.387918	25.310286	86.988331	70.590423	182.889040
	1.698330	23.717420	84.144268	67.563011	175.424700
	2.289405	22.283842	87.462342	68.041024	177.787207
	1.649074	23.398847	85.092289	68.837711	177.328847
	2.240149	23.558134	85.092289	68.041024	176.691447
	1.649074	23.398847	83.670258	70.431086	177.500191
	2.363290	26.106718	84.776282	68.041024	178.924024
	1.378165	24.991712	86.040310	70.271749	181.303771
	2.264777	24.195280	84.618279	67.084999	175.898557
	1.649074	23.398847	83.986265	69.475061	176.860173
	2.190893	24.035993	82.722237	67.722348	174.480579
	1.599818	23.717420	83.986265	68.519036	176.222721
	2.264777	24.035993	83.512254	70.749761	178.298009
	1.624446	25.788145	83.196247	67.403673	176.388065
	2.289405	23.239561	84.302272	69.315723	176.857556
	1.525933	23.876707	84.460275	68.041024	176.378006
	2.363290	20.213117	82.880240	66.766323	169.859681
	1.599818	22.761702	85.724303	68.837711	177.323715
	2.166265	24.195280	84.460275	68.678374	177.333929
	1.550562	23.558134	84.302272	70.909098	178.769504
	2.338662	24.195280	84.302272	68.041024	176.538575
	1.575190	22.602415	82.564233	67.563011	172.729659
	2.264777	23.876707	84.144268	69.475061	177.496036
	1.550562	24.354567	83.670258	67.563011	175.587835
	1.944612	20.690977	81.932219	66.128974	168.752170
	1.452049	22.602415	82.722237	67.084999	172.409650
	2.117009	23.876707	83.986265	69.634399	177.497370
	1.501305	25.150999	83.670258	67.403673	176.224930
	2.264777	21.965269	83.512254	67.084999	172.562522
	1.525933	23.717420	84.776282	71.068436	179.562139
	2.166265	24.195280	86.040310	68.041024	178.276613
	1.673702	22.283842	84.144268	69.156386	175.584496
	2.117009	24.354567	83.354251	68.359698	176.068515
	1.525933	22.920988	85.092289	70.431086	178.444363
	2.092380	25.788145	84.144268	70.431086	180.363499
	1.304280	22.920988	83.354251	68.519036	174.794275
	2.190893	23.080275	82.722237	69.634399	175.436910
	1.673702	24.673140	82.880240	67.084999	174.638378
	2.166265	23.398847	83.986265	69.315723	176.700835
	1.525933	24.035993	83.670258	67.563011	175.269262
	1.993868	23.717420	84.302272	69.156386	177.176078
	1.624446	25.469572	83.512254	68.837711	177.819537
	2.092380	24.035993	84.934286	69.793736	178.764015
	1.575190	23.398847	84.776282	70.112411	178.287541
	2.117009	24.673140	86.356317	70.271749	181.301205
	1.402793	25.150999	89.042377	71.865123	186.058499
	2.190893	24.673140	85.408296	69.156386	179.237821
	1.476677	23.876707	85.092289	72.661811	181.630807
	2.190893	25.150999	84.302272	68.997049	178.450319
	1.476677	23.239561	82.248226	68.997049	174.484836
	2.190893	22.761702	83.196247	68.997049	174.954997
	1.378165	22.920988	81.458208	67.084999	171.464195
	2.141637	23.080275	84.144268	69.634399	176.858941
	1.575190	23.876707	83.512254	67.244336	174.633297
	1.969240	23.080275	82.406230	68.837711	174.324215
	1.328908	28.496015	86.672324	72.183799	187.352138
	2.363290	22.443129	84.302272	68.200361	174.945761
	1.698330	23.239561	83.038244	70.590423	176.868228
	2.264777	20.850264	84.776282	65.969636	171.596182
	1.501305	22.283842	84.302272	69.156386	175.742500
	2.215521	24.195280	85.566300	68.200361	177.961941
	1.452049	21.487409	82.722237	68.200361	172.410007
	2.363290	24.513853	83.512254	69.953074	177.979181
	1.378165	22.124555	83.038244	68.041024	173.203823
	2.166265	24.991712	83.828261	72.183799	181.003772
	1.427421	25.469572	83.986265	68.678374	178.134210
	2.190893	22.283842	82.564233	68.519036	173.367111
	1.649074	23.876707	83.196247	68.519036	175.591990
	2.363290	22.920988	83.512254	67.881686	174.314928
	1.673702	22.602415	84.302272	68.359698	175.264385
	2.018496	24.991712	85.724303	69.793736	180.509751
	1.427421	22.920988	84.144268	70.112411	177.177667
	2.043124	26.425291	83.986265	68.200361	178.611917
	1.624446	22.283842	83.986265	68.837711	175.107818
	2.289405	23.080275	83.670258	68.519036	175.269568
	1.402793	21.168837	81.616212	67.403673	170.188722
	2.092380	24.513853	84.460275	69.475061	178.449189
	1.378165	23.080275	81.932219	68.837711	173.850205
	2.117009	22.761702	83.196247	70.112411	176.070359
	1.353536	24.991712	83.512254	68.678374	177.182340
	2.314034	22.761702	83.038244	68.678374	174.478319
	1.599818	22.443129	82.090223	65.969636	170.502987
	2.289405	23.876707	84.460275	70.271749	178.608731
	1.649074	24.832426	83.196247	67.881686	175.910359
	2.190893	24.832426	86.356317	70.431086	181.619829
	1.328908	22.761702	83.512254	71.227774	177.501729
	2.166265	22.124555	83.196247	66.128974	171.449776
	1.599818	25.310286	87.146335	72.024461	184.481081
	2.387918	22.761702	82.564233	68.200361	173.526296
	1.452049	21.646696	83.196247	67.881686	172.724629
	2.166265	23.558134	82.880240	69.475061	175.913435
	1.378165	22.602415	83.038244	67.563011	173.203669
	2.018496	22.920988	82.880240	69.793736	175.594964
	1.550562	25.469572	83.670258	69.793736	178.933566
	2.043124	22.283842	83.196247	68.519036	173.999125
	1.599818	22.761702	84.144268	69.793736	176.699706
	2.092380	23.080275	84.144268	67.881686	175.106229
	1.575190	21.965269	86.514321	68.519036	176.998626
	2.018496	23.398847	83.986265	67.244336	174.629448
	1.427421	24.354567	86.198314	70.271749	180.824629
	2.166265	25.469572	83.512254	68.678374	177.660200
	1.378165	22.602415	81.774216	68.519036	172.895667
	2.092380	23.080275	83.512254	70.909098	177.501627
	1.525933	21.805983	82.722237	68.359698	172.887918
	2.092380	23.239561	84.460275	70.112411	177.812247
	1.279652	23.239561	83.038244	68.359698	174.637503
	1.895355	23.398847	83.512254	71.068436	177.979538
	1.550562	24.832426	83.670258	68.997049	177.499732
	1.969240	23.080275	83.670258	69.315723	176.066256
	1.624446	21.965269	82.564233	68.041024	172.570526
	1.993868	22.920988	84.302272	68.041024	175.264283
	1.156511	24.354567	84.144268	69.475061	177.973896
	1.772215	23.558134	85.408296	68.837711	177.804141
	1.747587	24.035993	84.776282	71.227774	180.040049
	2.215521	25.469572	86.356317	69.315723	181.141613
	1.304280	21.805983	83.670258	69.315723	174.791964
	2.043124	23.398847	83.670258	70.749761	177.818866
	1.255024	22.124555	84.460275	68.678374	175.263204
	1.993868	22.920988	83.196247	69.475061	175.592296
	1.427421	23.717420	83.670258	68.678374	176.066052
	2.117009	26.266004	85.092289	71.387111	182.745405
	1.599818	24.832426	83.828261	69.634399	178.295085
	2.043124	23.558134	84.776282	69.315723	177.650139
	1.649074	23.558134	86.830328	71.705786	182.094247
	1.993868	24.354567	84.934286	68.678374	177.967226
	1.107255	23.239561	86.198314	69.793736	179.231611
	1.599818	22.761702	83.038244	66.766323	172.566269
	1.378165	24.832426	83.828261	70.112411	178.773098
	1.846099	24.035993	83.038244	67.881686	174.955923
	1.328908	21.168837	80.194181	67.244336	168.607353
	1.919983	23.876707	84.460275	71.227774	179.564755
	1.255024	24.513853	83.196247	68.678374	176.388474
	1.993868	22.283842	82.880240	69.315723	174.479805
	1.452049	23.398847	83.512254	70.590423	177.501525
	1.919983	22.283842	84.302272	68.678374	175.264487
	1.378165	24.354567	84.144268	69.475061	177.973896
	1.747587	21.965269	86.040310	68.678374	176.683953
	1.501305	23.558134	84.144268	71.227774	178.930176
	1.796843	22.920988	85.250293	68.519036	176.690316
	1.328908	22.602415	83.828261	69.634399	176.065075
	1.821471	25.628858	88.094356	69.953074	183.676288
	1.402793	23.239561	84.302272	68.678374	176.220206
	1.919983	26.584578	84.302272	69.315723	180.202573
