LabVIEW Measurement	
Writer_Version	2
Reader_Version	2
Separator	Tab
Decimal_Separator	.
Multi_Headings	No
X_Columns	No
Time_Pref	Absolute
Operator	lvuser
Date	2021/05/25
Time	14:24:01.864468737
***End_of_Header***	
	
Channels	5					
Samples	2000	2000	2000	2000	2000	
Date	2021/05/25	2021/05/25	2021/05/25	2021/05/25	2021/05/25	
Time	14:24:01.8644687870585883856	14:24:01.864468737	14:24:01.864468737	14:24:01.864468737	14:24:01.864468737	
Y_Unit_Label	Volts	Volts	Volts	Volts	Volts	
X_Dimension	Time	Time	Time	Time	Time	
X0	0.0000000000000000E+0	0.0000000000000000E+0	0.0000000000000000E+0	0.0000000000000000E+0	0.0000000000000000E+0	
Delta_X	0.001000	0.001000	0.001000	0.001000	0.001000	
***End_of_Header***						
X_Value	cisnienieKomoraGorna	sila1	sila2	sila3	sila1 1	Comment
	2.264777	-2.724139	42.589348	3.668674	43.533883	Masa: 0.00 [kg]\09Pozycja Y 5.00 [m]\09Pozycja Z 2.71 [m]\0A
	2.117009	-5.909868	39.587281	1.278611	34.956024
	1.722958	-3.361285	42.589348	4.306024	43.534087
	2.018496	-4.635576	41.799330	4.624699	41.788452
	1.722958	-4.954149	41.641327	2.393974	39.081151
	1.993868	-4.317003	41.483323	2.075299	39.241618
	1.747587	-2.883425	43.853376	4.943374	45.913324
	2.141637	-5.750582	38.797264	1.756624	34.803305
	1.501305	-3.679858	42.273341	1.278611	39.872094
	2.043124	-5.432009	40.693306	3.987349	39.248645
	1.427421	-2.086993	41.641327	1.119274	40.673608
	2.018496	-6.387728	38.007246	-0.155427	31.464092
	1.181140	-4.476290	41.641327	2.871986	40.037023
	1.796843	-0.971987	41.957334	2.393974	43.379320
	1.525933	-3.998431	43.853376	2.075299	41.930244
	1.821471	-3.201998	40.693306	5.262049	42.753356
	1.575190	-1.927706	42.273341	3.349999	43.695633
	2.240149	-4.954149	40.535302	0.800599	36.381751
	1.525933	-4.157717	42.115337	3.190661	41.148281
	1.969240	-3.201998	39.271274	2.553311	38.622587
	1.205768	-5.272723	40.535302	1.756624	37.019203
	1.796843	-4.794863	40.851309	3.349999	39.406445
	1.107255	-2.246279	39.903288	4.465361	42.122370
	1.772215	-4.635576	42.747351	2.393974	40.505748
	1.156511	-2.883425	41.957334	3.031324	42.105232
	1.624446	-2.405565	42.273341	3.668674	43.536449
	1.353536	-3.201998	41.641327	3.668674	42.108002
	1.993868	-4.157717	41.325320	2.871986	40.039589
	1.476677	-3.839144	40.851309	2.871986	39.884151
	2.117009	-4.157717	41.641327	5.102711	42.586321
	1.402793	-4.157717	40.851309	1.597286	38.290878
	1.698330	-5.750582	41.483323	0.959936	36.692677
	1.255024	-6.387728	39.429278	1.119274	34.160823
	1.796843	-3.679858	42.589348	3.349999	42.259489
	0.860974	-5.750582	39.903288	0.163249	34.315955
	1.747587	-1.449847	46.855442	6.377411	51.783007
	1.156511	-5.750582	38.007246	2.553311	34.809975
	1.599818	-1.131274	44.327386	4.146686	47.342799
	1.402793	-3.998431	41.957334	2.553311	40.512214
	1.895355	-5.909868	40.061292	0.641261	34.792684
	0.959486	-4.157717	40.219295	2.712649	38.774227
	1.698330	-2.883425	42.747351	2.553311	42.417237
	0.984115	-5.909868	40.061292	1.915961	36.067384
	1.796843	-3.201998	40.851309	4.943374	42.592685
	1.230396	-3.361285	43.063358	2.234636	41.936710
	1.772215	-4.954149	40.377299	2.075299	37.498448
	1.279652	-2.405565	41.167316	1.915961	40.677712
	1.452049	-4.157717	41.641327	2.871986	40.355596
	1.082627	-2.405565	44.169383	4.624699	46.388516
	1.304280	-1.927706	40.061292	0.800599	38.934184
	1.378165	-3.679858	41.641327	5.262049	43.223518
	1.772215	-4.157717	42.273341	3.349999	41.465622
	1.550562	-2.564852	40.377299	1.437949	39.250395
	1.772215	-3.839144	43.221362	2.075299	41.457516
	1.550562	-4.157717	40.535302	3.031324	39.408909
	1.919983	-4.794863	41.957334	2.712649	39.875119
	1.476677	-3.839144	41.167316	2.393974	39.722146
	1.525933	-5.113436	42.589348	2.553311	40.029223
	1.279652	-4.954149	40.219295	4.306024	39.571169
	1.402793	-3.520571	41.167316	2.393974	40.040719
	1.205768	-6.547015	40.061292	0.959936	34.474213
	1.353536	-5.113436	39.903288	2.712649	37.502501
	1.673702	-3.042711	42.431344	3.828011	43.216644
	1.772215	-6.547015	40.377299	1.119274	34.949558
	1.796843	-3.520571	43.537369	5.102711	45.119509
	1.969240	-3.042711	41.799330	4.784036	43.540655
	1.772215	-4.794863	43.695372	2.234636	41.135145
	1.304280	-6.706301	38.955267	1.119274	33.368240
	1.722958	-3.839144	41.799330	3.031324	40.991510
	1.378165	-4.157717	42.905355	4.306024	43.053661
	1.501305	-6.547015	42.273341	2.234636	37.960962
	1.501305	-3.361285	41.325320	2.871986	40.836021
	1.673702	-2.724139	43.221362	7.333436	47.830659
	2.240149	-0.175555	45.907421	7.652111	53.383978
	2.067752	-2.246279	42.273341	3.987349	44.014410
	1.870727	-3.201998	43.063358	3.031324	42.892684
	1.895355	-4.794863	40.851309	2.553311	38.609757
	1.673702	-3.998431	41.641327	3.031324	40.674220
	1.944612	-3.839144	40.693306	2.393974	39.248135
	1.525933	-4.635576	41.325320	2.234636	38.924379
	2.043124	-4.317003	40.377299	4.784036	40.844331
	1.575190	-2.883425	40.851309	2.075299	40.043183
	1.993868	-4.794863	41.009313	1.597286	37.811736
	1.698330	-4.476290	41.483323	2.871986	39.879019
	1.919983	-3.042711	43.853376	2.393974	43.204638
	1.402793	-4.317003	39.903288	3.031324	38.617608
	1.969240	-6.228441	40.693306	1.119274	35.584138
	1.452049	-4.317003	40.377299	2.712649	38.772944
	2.117009	-4.317003	42.589348	3.190661	41.463005
	1.649074	-4.317003	41.009313	3.349999	40.042308
	2.141637	-3.361285	41.325320	2.553311	40.517346
	1.525933	-3.839144	42.115337	3.828011	42.104204
	2.190893	-4.794863	40.851309	3.031324	39.087770
	1.033371	-4.317003	40.851309	1.119274	37.653579
	1.846099	-4.635576	41.799330	4.624699	41.788452
	1.279652	-3.361285	43.379365	5.421386	45.439467
	1.944612	-3.201998	42.115337	2.712649	41.625988
	1.402793	-1.927706	47.329453	5.262049	50.663795
	2.437174	-5.432009	40.219295	3.031324	37.818610
	1.599818	-3.679858	43.063358	4.146686	43.530187
	2.338662	-3.839144	42.431344	3.509336	42.101536
	2.461802	-4.635576	43.063358	3.668674	42.096455
	2.732712	-3.839144	41.799330	6.058736	44.018922
	3.077506	-3.520571	42.589348	3.987349	43.056125
	4.850731	-3.839144	43.221362	3.509336	42.891554
	6.008253	-5.113436	41.641327	2.712649	39.240539
	9.012885	-1.449847	46.065425	5.899399	50.514977
	11.106277	1.417310	47.013446	8.608136	57.038892
	12.214543	3.169462	49.857509	8.767474	61.794444
	14.431075	5.240187	51.437544	13.228924	69.906654
	17.731245	11.452360	55.545635	18.009048	85.007043
	19.578355	10.974500	58.231694	17.053024	86.259218
	20.243314	16.230955	63.603813	22.151823	101.986592
	23.469600	21.328123	66.289873	24.063874	111.681869
	25.957042	23.398847	71.503988	29.481348	124.384184
	28.469112	28.177443	81.300205	33.942799	143.420446
	33.493252	32.637465	78.140135	34.102136	144.879736
	37.483010	40.283216	91.096422	46.849136	178.228775
	44.846825	46.654677	98.364583	51.310586	196.329846
	49.920222	53.981855	105.000730	56.409386	215.391972
	55.658580	58.282591	110.372849	61.508186	230.163626
	59.968505	61.786894	116.218979	64.854274	242.860146
	61.298425	69.910505	122.223112	68.997049	261.130666
	66.544221	75.326246	129.649276	74.892536	279.868059
	73.316962	81.697707	138.971483	83.656098	304.325288
	78.882925	89.343458	144.027595	85.727486	319.098539
	84.916823	96.352064	153.507805	91.304299	341.164168
	89.546917	104.634963	162.830011	99.908524	367.373497
	95.063625	111.324996	172.626228	104.369974	388.321197
	98.117518	122.793624	177.840344	111.540161	412.174128
	101.663973	130.439376	187.952568	116.957636	435.349579
	103.412573	140.792998	196.958767	125.561861	463.313626
	106.762004	153.058059	208.967033	133.369399	495.394490
	108.978539	163.093108	217.657226	140.539586	521.289919
	112.278714	176.313888	231.561534	151.374536	559.249957
	112.278714	190.649673	245.149835	162.687499	598.487006
	116.736413	203.233306	257.474108	174.000461	634.707875
	119.051462	218.046951	274.222479	186.428786	678.698215
	122.794944	234.134887	287.178766	198.379099	719.692751
	124.124866	251.337829	304.085140	214.950199	770.373168
	125.528672	264.717895	318.779466	226.900511	810.397872
	124.715942	278.894393	334.105805	237.257449	850.257647
	123.804700	292.752319	346.904089	249.845111	889.501519
	120.553780	305.654525	362.230428	261.158074	929.043027
	117.696912	314.733856	372.342652	268.806274	955.882782
	113.214584	326.361770	383.560901	276.932486	986.855157
	110.185319	331.936798	393.041111	283.943336	1008.921245
	108.116553	336.874680	398.255226	289.360811	1024.490716
	106.762004	344.042572	405.839394	291.432199	1041.314165
	103.166291	344.361145	408.367450	293.503586	1046.232181
	101.836370	344.839004	411.527520	293.184911	1049.551436
	98.388427	343.405426	408.209447	291.272861	1042.887733
	95.974867	341.971847	408.525454	288.404786	1038.902087
	91.837336	339.901123	406.155401	290.476174	1036.532698
	87.355011	336.237534	404.259359	285.377374	1025.874266
	80.877806	330.981079	394.937153	279.003873	1004.922105
	75.385727	325.246765	390.829062	274.542424	990.618250
	68.834639	321.742462	385.298939	271.036999	978.078400
	63.514959	313.778137	377.398764	265.460186	956.637087
	58.737098	307.247390	369.498589	259.246024	935.992003
	58.589329	301.194503	361.598414	254.147224	916.940141
	53.589815	294.026611	354.962267	250.323124	899.312002
	50.240388	285.425140	345.324054	241.400224	872.149417
	45.708809	278.575821	338.055893	234.867386	851.499099
	41.694422	270.292922	328.575683	229.927924	828.796529
	37.138216	260.257873	319.885490	222.917074	803.060437
	33.517880	255.479278	312.143319	217.658936	785.281533
	28.321343	244.329223	300.451060	207.939349	752.719631
	24.405469	232.701309	290.496839	200.928499	724.126646
	19.898520	226.966994	282.280657	195.989036	705.236688
	16.450582	213.586928	268.534353	183.401374	665.522655
	12.583965	200.684722	256.526087	174.000461	631.211270
	11.032392	194.313262	252.259992	169.060999	615.634253
	9.628589	182.844634	235.037611	159.182074	577.064318
	7.288916	171.694579	225.399397	150.099836	547.193812
	4.235028	161.022384	214.339152	139.742899	515.104434
	2.584943	148.757323	201.066858	132.732049	482.556230
	0.934858	139.040847	190.480624	123.490474	453.011944
	-0.444317	129.802230	181.316421	114.089561	425.208211
	-1.281674	118.174315	169.940169	105.485336	393.599820
	-1.133905	110.209990	160.775966	99.430511	370.416467
	0.097502	101.130659	153.823812	91.941648	346.896119
	0.590064	96.352064	145.923637	86.842849	329.118550
	2.757340	85.839156	135.969416	81.266036	303.074608
	2.954365	77.874831	128.227245	74.095849	280.197924
	3.397671	68.476927	121.749101	63.579574	253.805602
	3.422299	63.539046	111.320870	60.711499	235.571414
	3.003621	57.645445	107.212779	56.250049	221.108273
	1.501305	52.707563	101.682657	51.947936	206.338156
	0.688577	48.566114	96.468541	46.371124	191.405779
	-0.148780	43.787519	91.570433	46.849136	182.207088
	0.023617	38.690351	87.146335	40.794311	166.630997
	0.565436	37.416059	84.460275	36.332861	158.209195
	1.525933	32.159605	80.036177	33.464786	145.660568
	1.895355	28.018156	77.982132	30.437373	136.437661
	2.855852	29.133161	73.400030	28.525324	131.058515
	2.437174	22.761702	70.713971	24.860561	118.336233
	2.560315	22.443129	71.029978	23.745199	117.218305
	2.240149	20.531690	66.131869	22.629836	109.293396
	2.240149	17.345961	66.605880	18.327724	102.279564
	1.057999	13.204512	61.549768	14.503624	89.257903
	1.328908	12.089506	61.707771	14.184949	87.982226
	0.787089	13.204512	60.443743	13.388261	87.036516
	1.476677	10.178068	61.707771	11.157536	83.043375
	1.304280	8.585203	55.703638	9.404824	73.693665
	2.190893	9.859495	56.967666	7.333436	74.160597
	1.944612	9.063062	57.283673	10.838861	77.185597
	2.584943	6.992338	54.597614	5.580724	67.170675
	1.846099	8.903776	53.965600	6.218074	69.087449
	2.117009	4.443754	52.227561	3.349999	60.021314
	1.624446	5.718046	53.175582	4.306024	63.199652
	1.796843	3.965895	49.225495	1.278611	54.470000
	1.427421	4.603041	53.491589	2.712649	60.807278
	1.796843	2.213743	49.383498	2.553311	54.150552
	1.501305	7.629484	50.963533	1.915961	60.508978
	1.501305	0.780165	47.803463	-1.430127	47.153501
	1.328908	4.603041	54.439610	2.393974	61.436624
	1.870727	-0.334841	43.853376	-2.704827	40.813708
	1.452049	4.284467	50.015512	1.915961	56.215941
	2.043124	4.921613	50.173516	1.278611	56.373740
	1.082627	1.417310	46.065425	1.597286	49.080021
	1.722958	2.532316	45.275407	0.641261	48.448984
	1.107255	0.143018	44.643393	-2.226814	42.559598
	1.624446	1.417310	46.381432	0.163249	47.961991
	1.008743	1.258024	44.327386	-0.474102	45.111309
	1.673702	-0.016268	45.591414	1.756624	47.331770
	0.885602	-0.494128	43.063358	-0.474102	42.095129
	1.993868	-1.290560	41.641327	-2.545489	37.805278
	1.082627	-1.131274	42.905355	1.756624	43.530705
	1.772215	-1.290560	41.799330	-0.155427	40.353344
	1.156511	1.258024	45.591414	0.959936	47.809374
	1.649074	-1.131274	41.641327	0.800599	41.310652
	0.787089	-1.768420	43.221362	2.234636	43.687578
	1.550562	-0.653414	42.431344	2.553311	44.331241
	1.131883	0.302305	45.591414	3.031324	48.925043
	1.624446	-4.476290	39.903288	1.915961	37.342959
	1.131883	-2.246279	41.641327	3.828011	43.223059
	1.698330	-2.246279	41.167316	1.915961	40.836998
	1.107255	-2.246279	41.009313	3.828011	42.591045
	1.772215	-3.361285	39.271274	3.349999	39.259988
	0.885602	-3.679858	39.271274	3.349999	38.941415
	1.722958	-3.998431	40.219295	3.349999	39.570863
	0.984115	-2.564852	40.535302	6.218074	44.188524
	1.796843	-4.317003	40.219295	4.943374	40.845665
	0.762461	-2.564852	40.851309	6.218074	44.504531
	1.722958	-3.998431	40.693306	5.421386	42.116261
	1.328908	-3.042711	40.061292	6.377411	43.395991
	1.821471	-3.679858	42.115337	5.899399	44.334878
	1.156511	-3.520571	39.113271	6.536749	42.129448
	1.944612	-4.157717	39.745285	4.465361	40.052929
	1.181140	-1.609133	41.957334	10.520186	50.868387
	2.018496	-3.201998	40.377299	6.536749	43.712049
	1.624446	-4.476290	38.639260	5.262049	39.425019
	2.018496	-6.069155	37.059225	4.306024	35.296094
	1.107255	-3.839144	39.903288	6.377411	42.441555
	1.895355	-6.069155	37.691239	4.465361	36.087445
	1.033371	-2.086993	40.851309	4.784036	43.548353
	1.846099	-4.794863	37.691239	7.333436	40.229812
	1.082627	-4.317003	39.903288	8.608136	44.194421
	1.895355	-3.679858	37.691239	2.712649	36.724030
	0.910230	-4.317003	38.797264	5.421386	39.901646
	1.624446	-4.794863	41.167316	6.218074	42.590527
	0.910230	-3.679858	39.903288	6.696086	42.919517
	1.673702	-4.794863	39.587281	5.740061	40.532479
	0.910230	-5.909868	39.429278	4.784036	38.303445
	1.599818	-6.865588	39.429278	6.536749	39.100439
	0.934858	-3.679858	40.061292	7.333436	43.714870
	1.599818	-4.476290	41.483323	6.058736	43.065769
	1.427421	-8.458452	37.533236	3.031324	32.106107
	1.649074	-4.157717	39.429278	5.421386	40.692947
	1.131883	-6.069155	38.955267	4.943374	37.829486
	1.378165	-6.387728	38.639260	4.146686	36.398218
	1.722958	-5.591295	38.955267	5.740061	39.104033
	2.067752	-4.954149	40.377299	5.740061	41.163210
	1.205768	-5.432009	42.115337	5.102711	41.786039
	1.304280	-5.113436	38.955267	3.828011	37.669842
	1.304280	-7.024874	39.903288	4.624699	37.503113
	1.599818	-6.387728	39.903288	4.465361	37.980921
	1.772215	-7.184160	38.639260	1.597286	33.052386
	1.525933	-6.706301	38.639260	4.784036	36.716995
	1.304280	-4.954149	40.693306	6.058736	41.797892
	1.575190	-5.113436	40.061292	3.031324	37.979179
	1.722958	-5.113436	39.429278	3.349999	37.665840
	1.870727	-4.794863	42.115337	3.987349	41.307823
	2.166265	-5.272723	38.323253	3.031324	36.081854
	1.427421	-2.246279	41.799330	4.943374	44.496425
	1.895355	-6.387728	39.745285	0.641261	33.998818
	1.476677	-3.520571	42.747351	6.696086	45.922866
	1.747587	-3.839144	38.955267	3.509336	38.625459
	1.156511	-5.432009	40.535302	0.959936	36.063229
	1.821471	-4.954149	41.641327	2.075299	38.762476
	1.156511	-0.016268	43.063358	4.784036	47.831126
	1.673702	-4.157717	43.063358	2.553311	41.458952
	0.910230	-3.520571	42.431344	3.190661	42.101434
	1.698330	-1.449847	43.537369	2.553311	44.640833
	0.811718	-3.839144	42.273341	4.465361	42.899558
	1.846099	-4.157717	42.589348	1.915961	40.347592
	1.402793	-1.609133	43.221362	2.712649	44.324877
	1.649074	-3.042711	43.063358	2.075299	42.095945
	0.959486	-3.839144	43.063358	2.234636	41.458850
	1.452049	-2.086993	43.379365	2.553311	43.845684
	1.008743	-1.609133	43.853376	2.871986	45.116229
	1.673702	-2.564852	43.853376	4.943374	46.231897
	1.156511	-1.131274	44.011379	2.234636	45.114742
	1.230396	-2.246279	44.011379	2.075299	43.840399
	1.525933	-2.086993	46.065425	3.668674	47.647106
	1.796843	-2.405565	43.221362	2.712649	43.528445
	1.452049	-2.405565	43.853376	2.712649	44.160459
	1.575190	-3.679858	43.063358	0.800599	40.184099
	1.550562	-3.839144	42.747351	3.349999	42.258206
	1.427421	-2.405565	42.905355	2.393974	42.893763
	1.698330	-4.157717	43.063358	0.800599	39.706240
	1.575190	-4.476290	42.431344	0.959936	38.914990
	1.599818	-3.042711	42.115337	1.915961	40.988587
	1.501305	-3.839144	44.643393	2.393974	43.198223
	1.427421	-3.201998	41.325320	2.234636	40.357958
	1.476677	-3.201998	42.747351	1.915961	41.461314
	1.796843	-0.494128	44.801397	6.058736	50.366005
	1.476677	-2.883425	43.537369	2.393974	43.047917
	1.772215	-5.272723	39.745285	-0.474102	33.998461
	1.476677	-1.290560	41.483323	1.437949	41.630712
	1.624446	-3.998431	42.273341	1.756624	40.031534
	1.181140	-4.476290	41.957334	1.915961	39.397005
	2.018496	-1.449847	42.431344	0.641261	41.622759
	1.452049	-4.476290	40.061292	1.915961	37.500963
	1.747587	-6.228441	40.219295	2.712649	36.703502
	1.131883	-6.228441	38.165250	-2.067477	29.869332
	2.117009	-2.246279	42.747351	3.349999	43.851071
	1.452049	-3.361285	42.589348	3.349999	42.578062
	2.117009	-2.883425	41.483323	1.597286	40.197184
	1.082627	-2.246279	42.905355	3.190661	43.849737
	1.649074	-5.591295	40.851309	0.959936	36.219950
	1.328908	-1.927706	41.167316	3.987349	43.226959
	1.673702	-4.476290	40.693306	1.119274	37.336289
	1.033371	-6.228441	40.219295	0.322586	34.313440
	1.698330	-4.317003	41.325320	2.393974	39.402290
	0.959486	-4.476290	42.589348	2.393974	40.507031
	1.722958	-5.750582	40.535302	1.915961	36.700681
	1.107255	-4.476290	42.431344	2.712649	40.667703
	1.673702	-3.839144	41.483323	4.943374	42.587553
	1.107255	-5.909868	40.377299	2.075299	36.542729
	1.698330	-5.909868	41.799330	2.234636	38.124098
	0.934858	-3.679858	42.589348	3.668674	42.578164
	1.969240	-4.794863	42.589348	3.668674	41.463158
	1.057999	-4.157717	42.589348	3.987349	42.418979
	1.993868	-3.042711	46.381432	4.146686	47.485406
	0.910230	-4.317003	39.903288	3.509336	39.095621
	1.747587	-3.839144	42.747351	5.740061	44.648268
	0.959486	-4.635576	41.641327	2.393974	39.399724
	1.821471	-2.246279	43.221362	3.668674	44.643756
	0.984115	-2.883425	43.063358	4.943374	45.123307
	1.747587	-4.157717	42.115337	4.784036	42.741656
	1.181140	-3.201998	41.641327	3.349999	41.789327
	1.698330	-3.998431	42.431344	2.712649	41.145562
	1.107255	-6.547015	41.641327	3.668674	38.762985
	1.870727	-3.042711	41.167316	6.218074	44.342678
	0.984115	-4.157717	42.273341	3.349999	41.465622
	1.747587	-5.432009	41.957334	3.190661	39.715986
	1.230396	-3.520571	39.745285	3.031324	39.256037
	1.550562	-3.520571	42.747351	4.784036	44.010816
	1.008743	-3.679858	43.379365	4.306024	44.005531
	1.353536	-3.042711	42.115337	5.740061	44.812687
	1.181140	-4.476290	41.799330	5.580724	42.903764
	1.796843	-4.954149	43.695372	2.712649	41.453871
	1.082627	-1.609133	42.905355	4.784036	46.080258
	1.575190	-2.564852	43.853376	5.421386	46.709910
	0.934858	-2.724139	42.273341	3.828011	43.377213
	1.255024	-3.839144	43.063358	2.553311	41.777525
	1.131883	-4.794863	40.535302	3.349999	39.090438
	1.378165	-4.794863	42.589348	6.377411	44.171896
	1.575190	-4.157717	41.957334	2.871986	40.671603
	1.402793	-4.317003	41.167316	3.031324	39.881636
	1.476677	-5.272723	41.641327	3.668674	40.037278
	1.452049	-4.317003	41.957334	3.509336	41.149666
	1.649074	-5.113436	42.115337	3.190661	40.192562
	1.427421	-4.794863	42.589348	2.393974	40.188458
	1.722958	-5.591295	44.959400	4.784036	44.152141
	1.402793	-3.361285	40.851309	4.943374	42.433398
	1.919983	-5.591295	42.115337	1.597286	38.121328
	1.378165	-5.113436	41.799330	2.393974	39.079868
	1.895355	-3.839144	42.589348	4.306024	43.056227
	1.575190	-0.334841	45.749418	6.058736	51.473313
	1.747587	-5.272723	40.851309	2.234636	37.813223
	1.131883	-4.954149	42.905355	2.234636	40.185841
	1.895355	-1.609133	42.589348	5.262049	46.242263
	1.846099	-5.750582	42.431344	3.031324	39.712086
	1.870727	-4.794863	41.483323	1.915961	38.604421
	1.205768	-1.768420	42.431344	2.712649	43.375573
	1.821471	-4.476290	42.747351	3.190661	41.461722
	1.131883	-7.024874	39.113271	0.481924	32.570320
	1.747587	-1.609133	42.273341	0.959936	41.624144
	1.082627	-4.157717	42.589348	6.696086	45.127717
	1.698330	-6.547015	40.851309	1.597286	35.901581
	0.885602	-0.971987	42.905355	2.712649	44.646016
	1.747587	-3.361285	44.959400	3.828011	45.426127
	1.008743	-2.405565	44.327386	6.058736	47.980557
	1.821471	-1.131274	43.221362	3.668674	45.758762
	0.885602	-4.954149	42.115337	1.597286	38.758474
	1.846099	-4.954149	44.169383	5.580724	44.795957
	1.353536	-4.317003	40.535302	4.624699	40.842997
	2.289405	-3.998431	42.905355	2.871986	41.778910
	1.722958	-4.794863	43.379365	3.509336	42.093838
	2.215521	-4.157717	42.905355	4.943374	43.691011
	1.846099	-3.679858	44.959400	4.146686	45.426229
	2.289405	-4.476290	43.379365	4.624699	43.527774
	1.993868	-4.157717	44.801397	4.624699	45.268378
	2.387918	-4.476290	42.747351	5.421386	43.692447
	2.806596	-1.927706	47.013446	7.652111	52.737851
	3.446928	-3.042711	42.747351	4.624699	44.329338
	4.456681	-1.768420	45.275407	6.218074	49.725061
	5.244781	0.461591	46.065425	7.333436	53.860452
	5.589575	-0.494128	45.749418	7.333436	52.588726
	6.353047	2.691602	51.279540	9.723499	63.694641
	7.584454	2.213743	46.381432	7.970786	56.565961
	7.904619	3.806608	50.331519	12.272899	66.411026
	8.323298	3.328748	50.173516	11.316874	64.819138
	8.421810	7.788771	53.017579	12.113561	72.919910
	9.702473	5.718046	50.647526	12.591574	68.957146
	9.973383	8.744490	54.755617	15.937661	79.437768
	11.155533	10.655928	56.177649	16.415674	83.249250
	11.919005	12.567366	57.915687	18.327724	88.810776
	13.495206	13.363798	60.759750	22.948511	97.072059
	13.667603	17.345961	62.339785	22.948511	102.634257
	14.899009	18.301680	64.551834	24.223211	107.076725
	15.662481	21.487409	68.185914	28.684661	118.357985
	16.524466	21.487409	69.765950	27.250623	118.503983
	16.967772	25.788145	71.819995	32.508761	130.116901
	18.691742	23.558134	72.136002	29.322011	125.016147
	18.149923	25.469572	71.977998	33.305449	130.753019
	19.972405	29.929594	79.246160	37.607561	146.783315
	20.834390	30.088881	77.982132	36.014186	144.085198
	22.558359	34.708189	82.248226	39.200936	156.157351
	23.444972	35.345335	84.776282	41.750336	161.871953
	25.292082	39.486784	88.410363	46.371124	174.268270
	26.203323	40.601790	91.412429	44.777749	176.791967
	28.173574	42.353941	92.202447	49.079861	183.636249
	28.518368	45.858244	97.732569	53.859986	197.450799
	30.661016	45.539671	97.574566	50.991911	194.106148
	30.981182	50.318266	102.788681	54.178661	207.285608
	32.976061	50.796125	102.314671	55.931374	209.042169
	32.852920	54.459715	106.580765	59.118124	220.158604
	34.108955	57.645445	109.266825	60.392824	227.305093
	34.601518	59.716169	111.478874	61.508186	232.703229
	36.399372	61.627607	115.902972	64.694936	242.225515
	36.793423	66.246916	116.534986	67.881686	250.663588
	37.827804	68.158354	118.589031	66.128974	252.876359
	37.359870	69.432646	120.327070	67.881686	257.641402
	38.936071	70.069792	121.907105	68.519036	260.495932
	38.517392	74.848387	123.487140	71.865123	270.200650
	39.428633	75.166960	125.225178	71.227774	271.619912
	39.108468	80.264128	129.333269	76.485911	286.083308
	39.724171	82.653425	131.545318	77.441936	291.640680
	39.428633	86.317015	134.231378	78.079286	298.627679
	39.970453	86.794875	134.547385	78.397961	299.740220
	39.601030	93.484908	139.761500	83.496761	316.743169
	39.724171	92.847762	139.919504	83.337424	316.104689
	39.305493	99.697081	146.555651	88.595561	334.848293
	39.551774	97.307784	141.341535	84.612124	323.261442
	39.428633	103.838530	150.189731	93.535024	347.563285
	39.748799	105.112822	151.295756	92.419661	348.828239
	38.788302	108.139265	153.191798	93.216349	354.547412
	38.714417	111.643569	156.509871	98.793161	366.946601
	37.384498	112.599288	158.563917	100.067861	371.231065
	37.310613	118.652175	161.249976	101.979911	381.882062
	35.586644	116.262877	161.249976	101.820574	379.333427
	34.897056	117.059309	165.200064	106.600699	388.860072
	33.961187	119.767180	163.462025	105.325998	388.555204
	32.828292	120.722899	167.254109	106.441361	394.418369
	31.128951	117.537169	164.726053	105.485336	387.748558
	30.242338	118.492888	169.150151	106.919374	394.562413
	27.853408	117.218596	163.146018	105.166661	385.531275
	27.188449	115.944304	164.726053	104.688649	385.359006
	25.095057	115.147871	164.884057	105.644674	385.676602
	24.503982	114.829299	162.672008	106.122686	383.623992
	22.459847	113.077147	163.146018	103.413949	379.637113
	21.770259	108.457838	158.247910	99.749186	366.454934
	19.676867	108.298552	157.457892	99.589849	365.346293
	18.839511	103.201384	153.981815	96.243761	353.426960
	17.435707	99.378508	151.611763	92.738336	343.728607
	17.829757	98.104216	147.503672	90.348274	335.956161
	15.810250	93.803481	145.291623	90.985624	330.080727
	15.613225	90.617751	142.131553	85.727486	318.476789
	14.135537	88.228453	141.341535	82.540736	312.110724
	13.421321	83.609145	134.231378	79.991336	297.831858
	11.869749	79.308409	131.861325	76.804586	287.974320
	11.623468	76.122679	127.279224	72.821149	276.223051
	10.589086	73.414808	123.961150	70.112411	267.488369
	10.047267	70.706938	121.433094	70.590423	262.730456
	8.939001	67.521208	117.325003	65.810299	250.656509
	8.668092	63.061186	113.058909	60.552161	236.672256
	7.313544	60.353316	110.688856	59.914811	230.956983
	7.830735	56.849013	107.686790	56.409386	220.945188
	6.525444	54.937574	103.578699	55.134686	213.650959
	6.968750	49.203260	98.996597	48.920524	197.120381
	5.688088	47.610396	96.626545	49.398536	193.635476
	5.909741	45.698957	92.202447	46.530461	184.431865
	5.269409	40.123930	90.148401	40.953649	171.225980
	5.146269	39.327497	87.462342	40.475636	167.265475
	4.210400	38.531065	85.566300	38.563586	162.660951
	4.432053	33.274610	81.142202	35.376836	149.793648
	3.767093	29.611021	80.826194	32.508761	142.945977
	4.185772	29.451735	73.716037	29.003336	132.171108
	3.619325	26.425291	72.768016	30.915386	130.108693
	4.038003	24.195280	71.029978	29.162674	124.387931
	3.471556	23.398847	69.607946	25.338573	118.345367
	3.717837	21.487409	67.079890	23.107848	111.675148
	3.028249	18.938826	63.445810	21.992486	104.377121
	3.397671	17.505247	62.813796	20.558449	100.877491
	3.274531	17.027387	61.391764	18.965074	97.384225
	3.545440	15.275236	60.917754	18.646399	94.839388
	3.348415	13.841658	57.125670	18.805736	89.773063
	3.397671	13.523085	57.599680	14.981636	86.104400
	3.126762	11.293074	55.229628	14.184949	80.707650
	3.520812	11.770933	57.599680	14.184949	83.555562
	3.299159	9.381636	50.647526	12.113561	72.142723
	3.570068	7.788771	51.595547	9.882836	69.267154
	3.668581	7.948057	51.437544	11.316874	70.702474
	3.767093	9.222349	51.437544	14.025611	74.685504
	4.038003	5.877333	49.067491	8.448799	63.393622
	3.890234	9.381636	52.385565	12.750911	74.518111
	4.087259	9.063062	51.595547	12.113561	72.772171
	4.481309	8.585203	51.595547	12.272899	72.453649
	4.358168	7.470198	51.437544	11.316874	70.224615
	4.727590	8.107344	49.541502	10.360849	68.009694
	4.998500	9.700209	51.279540	14.184949	75.164697
	5.072384	10.337354	53.333586	14.344286	78.015226
	5.343294	6.673765	48.593481	9.404824	64.672069
	5.220153	9.859495	52.543568	10.998199	73.401262
	5.244781	9.700209	52.859575	13.228924	75.788707
	5.047756	10.815214	54.913621	14.025611	79.754446
	5.441806	14.319517	54.755617	14.344286	83.419420
	4.875359	11.452360	57.599680	12.910248	81.962288
	5.441806	11.133787	54.597614	16.415674	82.147074
	5.023128	13.523085	57.599680	15.140974	86.263738
	4.850731	15.912382	60.759750	16.415674	93.087806
	4.653706	11.293074	57.125670	14.025611	82.444354
	4.826103	14.000944	59.969733	15.618986	89.589663
	3.717837	13.204512	57.915687	14.981636	86.101835
	4.259656	12.089506	59.179715	13.706936	84.976157
	3.471556	13.045225	58.863708	17.690373	89.599307
	3.939490	13.045225	59.811729	15.778324	88.635278
	3.422299	11.930219	58.073691	14.025611	84.029521
	3.840978	13.204512	59.969733	15.618986	88.793230
	2.929737	11.770933	57.441677	14.822299	84.034908
	3.643953	10.178068	60.917754	14.025611	85.121433
	2.855852	8.266630	54.281607	11.794886	74.343123
	3.594696	10.815214	56.967666	16.256336	84.039216
	3.077506	10.018782	57.599680	17.053024	84.671485
	3.619325	7.948057	55.703638	12.910248	76.561943
	3.003621	9.700209	56.809663	14.344286	80.854157
	3.570068	7.948057	55.071624	14.025611	77.045292
	3.225274	5.240187	53.175582	12.432236	70.848005
	3.767093	6.355192	52.859575	11.157536	70.372303
	3.717837	6.036619	55.229628	14.822299	76.088545
	3.939490	6.036619	53.175582	15.618986	74.831187
	4.136515	6.514479	53.175582	11.794886	71.484947
	4.111887	6.673765	53.491589	12.432236	72.597590
	4.161143	6.195905	52.227561	13.069586	71.493053
	4.210400	6.036619	54.123603	12.591574	72.751796
	4.555194	6.514479	52.385565	12.591574	71.491617
	4.407425	4.762327	52.701572	11.794886	69.258785
	4.875359	3.010175	50.173516	11.316874	64.500565
	4.924616	7.470198	54.123603	14.662961	76.256762
	5.441806	6.833052	52.543568	14.025611	73.402231
	5.220153	5.240187	53.333586	12.591574	71.165346
	6.106766	6.355192	52.227561	12.591574	71.174327
	5.638831	7.151625	53.965600	14.662961	75.780185
	5.885113	3.647321	51.911554	12.272899	67.831774
	5.811228	7.788771	53.175582	12.750911	73.715264
	6.229906	6.195905	53.333586	14.981636	74.511127
	6.008253	5.877333	53.491589	13.706936	73.075858
	6.722469	7.788771	55.071624	12.750911	75.611306
	6.500816	8.107344	54.281607	15.300311	77.689261
	7.165776	6.992338	54.913621	14.822299	76.728257
	7.485941	10.018782	55.071624	15.140974	80.231379
	7.559826	8.903776	58.389698	15.140974	82.434447
	7.436685	8.585203	54.439610	18.327724	81.352537
	8.298670	9.700209	55.703638	15.140974	80.544820
	7.806107	10.018782	57.125670	15.459649	82.604100
	8.791232	7.310911	54.439610	14.025611	75.776132
	8.347926	11.930219	57.441677	17.212361	86.584257
	8.939001	10.815214	56.493656	16.415674	83.724543
	8.126273	13.363798	60.601747	17.849711	91.815256
	9.603961	12.248793	59.021712	19.921099	91.191603
	8.914373	14.319517	61.865775	21.673811	97.859103
	10.268920	14.000944	59.653726	18.646399	92.301068
	9.382307	15.115949	61.707771	19.921099	96.744819
	10.589086	15.912382	63.919820	20.239773	100.071975
	10.047267	16.868101	62.023778	21.673811	100.565690
	10.884624	19.257399	66.763883	23.107848	109.129130
	10.392061	17.823820	62.971799	20.399111	101.194730
	11.771236	23.398847	68.659925	27.728636	119.787409
	11.204789	20.372404	66.605880	24.860561	111.838845
	11.869749	22.283842	70.871974	25.019899	118.175715
	11.377186	24.035993	66.921886	25.019899	115.977778
	12.165286	22.761702	69.133936	26.931949	118.827586
	11.721980	24.354567	70.397964	27.091286	121.843816
	12.436196	27.699583	70.713971	27.409961	125.823515
	12.042146	25.469572	69.923953	29.162674	124.556199
	12.854874	26.903150	73.084023	30.278036	130.265209
	12.460824	30.726026	73.874041	29.322011	133.922078
	13.076527	27.221723	72.610012	29.162674	128.994409
	12.608593	28.018156	76.086090	30.915386	135.019632
	13.519834	32.318891	76.086090	32.827436	141.232417
	12.756362	30.407453	76.876107	31.393399	138.676959
	13.569090	30.088881	76.244093	32.668099	139.001072
	12.830246	36.301054	82.248226	36.173524	154.722804
	13.544462	31.681745	77.034110	32.190086	140.905942
	12.953387	33.115324	80.984198	34.898823	148.998345
	13.766115	36.938200	80.984198	35.536174	153.458572
	13.224296	34.389616	80.984198	35.854849	151.228663
	13.569090	34.548902	80.194181	35.536174	150.279257
	13.593718	39.327497	82.722237	37.607561	159.657295
	13.618346	34.867475	81.774216	36.651536	153.293227
	13.101155	36.141768	83.196247	37.607561	156.945576
	13.544462	35.982481	85.092289	36.651536	157.726306
	12.928759	36.460340	82.722237	36.970211	156.152788
	13.593718	36.301054	84.776282	38.244911	159.322247
	13.101155	36.141768	84.618279	38.722924	159.482970
	13.298181	37.256773	83.196247	36.492199	156.945219
	13.175040	37.734632	87.620345	40.953649	166.308626
	13.224296	38.371778	85.882306	41.590999	165.845084
	13.150412	37.416059	85.092289	37.448224	159.956572
	13.199668	37.893919	85.408296	37.766899	161.069114
	13.101155	39.486784	89.516387	39.997624	169.000795
	13.002643	37.734632	83.828261	38.722924	160.285817
	12.731733	39.646071	86.514321	38.882261	165.042652
	12.805618	40.761076	88.410363	40.794311	169.965750
	12.854874	37.097487	84.460275	39.519611	161.077372
	12.583965	36.141768	81.774216	35.058161	152.974144
	12.460824	36.141768	84.144268	36.332861	156.618897
	12.510080	38.212492	85.408296	38.244911	161.865699
	12.756362	37.893919	82.880240	37.766899	158.541058
	12.411568	37.416059	86.356317	38.085574	161.857950
	12.337683	36.619627	83.038244	36.651536	156.309407
	12.288427	38.212492	84.302272	39.678949	162.193712
	12.214543	35.663908	82.564233	36.173524	154.401665
	11.820493	36.301054	86.514321	36.014186	158.829561
	11.894377	36.619627	80.826194	36.332861	153.778683
	11.426442	35.345335	82.248226	36.014186	153.607747
	11.869749	32.478178	79.720170	33.146111	145.344459
	11.303302	37.256773	82.406230	35.376836	155.039839
	11.598839	34.230329	79.562167	36.173524	149.966020
	10.859995	33.433897	80.194181	35.536174	149.164251
	11.327930	32.637465	78.140135	31.234061	142.011661
	10.786111	32.956038	80.036177	33.783461	146.775676
	11.254046	32.318891	80.826194	33.624124	146.769209
	10.687598	34.389616	78.772149	33.783461	146.945226
	10.687598	35.026762	81.300205	35.058161	151.385128
	10.367433	31.681745	78.930153	32.030749	142.642647
	10.958508	32.478178	77.034110	35.217499	144.729787
	10.219664	33.274610	80.194181	33.783461	147.252252
	10.392061	30.566740	76.560100	31.234061	138.360901
	9.973383	30.885313	78.140135	32.190086	141.215534
	10.392061	30.726026	77.034110	32.030749	139.790886
	9.751729	30.088881	79.404163	31.393399	140.886442
	9.998011	30.088881	74.664058	30.596711	135.349650
	9.850242	29.292448	74.822062	30.915386	135.029896
	9.948754	29.451735	76.402096	33.305449	139.159280
	9.456192	30.885313	77.350118	30.756049	138.991479
	9.530076	28.655302	72.926020	29.162674	130.743995
	9.357679	30.566740	76.244093	31.712074	138.522907
	9.456192	32.000318	77.824128	32.986774	142.811220
	8.791232	28.973875	73.084023	29.162674	131.220572
	9.209910	28.814589	76.244093	32.030749	137.089430
	8.544951	29.133161	74.348051	32.508761	135.989974
	9.012885	27.062437	73.400030	27.728636	128.191103
	8.323298	28.496015	73.874041	29.481348	131.851405
	9.234539	24.195280	74.822062	27.091286	126.108628
	8.421810	27.540297	71.503988	29.162674	128.206958
	9.012885	28.018156	72.926020	27.887974	128.832149
	8.569579	27.221723	73.084023	29.481348	129.787095
	8.766604	26.266004	73.084023	29.959361	129.309389
	8.224785	27.221723	71.187981	27.409961	125.819665
	8.865117	24.991712	70.397964	25.975924	121.365600
	7.904619	25.150999	71.503988	27.409961	124.064948
	8.569579	29.292448	74.348051	28.206648	131.847148
	7.633710	23.717420	71.345985	25.975924	121.039329
	8.150901	24.513853	70.397964	26.931949	121.843765
	7.756851	25.469572	70.081957	27.250623	122.802152
	8.224785	24.673140	70.555967	28.365986	123.595093
	7.633710	21.646696	67.869908	24.701224	114.217827
	8.077016	22.283842	70.871974	25.338573	118.494390
	7.682966	24.195280	69.291939	26.294599	119.781818
	8.175529	21.328123	69.449943	25.338573	116.116639
	7.165776	20.372404	68.659925	25.497911	114.530240
	8.495695	21.805983	71.029978	22.948511	115.784471
	7.436685	19.735258	65.815862	26.453936	112.005056
	8.175529	20.213117	68.343918	25.975924	114.532959
	7.584454	22.443129	68.817928	24.701224	115.962280
	8.101645	19.416685	68.501922	23.904536	111.823143
	7.559826	19.735258	67.079890	25.338573	112.153722
	7.904619	23.558134	69.449943	26.294599	119.302675
	7.264288	18.938826	66.921886	22.151823	108.012536
	8.200157	19.735258	66.605880	26.453936	112.795074
	7.510569	21.168837	67.711904	24.541886	113.422627
	7.978504	20.213117	67.079890	23.585861	110.878869
	7.362801	19.894544	67.869908	24.223211	111.987663
	7.953876	21.009550	67.395897	24.701224	113.106671
	7.288916	19.894544	70.713971	24.223211	114.831726
	7.707594	20.531690	66.447876	23.585861	110.565427
	7.288916	20.850264	67.237894	26.613274	114.701431
	7.929248	19.894544	66.921886	25.338573	112.155004
	7.362801	20.213117	67.079890	22.789174	110.082181
	8.150901	21.009550	66.289873	23.745199	111.044621
	7.732223	21.646696	66.605880	23.585861	111.838437
	8.594207	21.009550	67.869908	24.701224	113.580681
	7.707594	19.575972	65.973866	23.107848	108.657685
	8.397182	22.124555	68.501922	23.107848	113.734326
	7.929248	20.372404	65.499855	25.497911	111.370170
	8.446438	20.372404	67.079890	24.382548	111.834843
	7.830735	23.398847	67.869908	24.223211	115.491966
	8.372554	20.690977	65.657859	23.745199	110.094034
	7.904619	20.690977	68.501922	24.701224	113.894122
	8.471067	21.965269	67.079890	24.541886	113.587045
	8.126273	21.646696	68.659925	25.019899	115.326520
	8.569579	21.328123	68.343918	24.860561	114.532602
	8.397182	22.443129	71.029978	25.975924	119.449029
	8.815860	20.531690	65.657859	23.267186	109.456735
	8.274041	19.894544	67.395897	23.267186	110.557627
	8.446438	22.283842	67.711904	24.541886	114.537632
	8.643463	20.372404	67.553900	23.107848	111.034153
	9.062142	20.690977	66.289873	23.585861	110.566710
	8.692720	23.558134	68.975932	25.975924	118.509989
	9.062142	21.009550	67.395897	25.179236	113.584683
	8.815860	22.443129	68.185914	25.019899	115.648942
	8.791232	22.920988	70.081957	24.701224	117.704168
	9.308423	24.673140	69.765950	27.091286	121.530375
	9.086770	22.124555	69.291939	25.338573	116.755068
	8.889745	18.779539	65.815862	22.470499	107.065900
	9.357679	25.310286	74.348051	26.931949	126.590285
	9.357679	21.487409	67.237894	26.772611	115.497914
	9.382307	24.832426	71.661992	27.250623	123.745041
	9.406936	22.920988	69.133936	24.860561	116.915485
	9.530076	24.035993	71.819995	26.931949	122.787937
	9.259167	24.354567	70.239960	27.569299	122.163825
	9.456192	26.106718	72.136002	28.206648	126.449369
	9.333051	24.991712	71.977998	26.453936	123.423647
	9.283795	26.266004	72.610012	29.800024	128.676040
	9.554704	25.947432	73.716037	30.756049	130.419517
	9.480820	28.973875	72.452009	28.684661	130.110545
	9.357679	26.584578	73.242027	28.047311	127.873915
	9.727101	25.628858	72.610012	27.887974	126.126844
	9.800986	28.814589	71.661992	28.206648	128.683229
	9.628589	25.788145	73.558034	27.569299	126.915477
	9.850242	23.558134	70.239960	25.179236	118.977330
	9.825614	30.407453	73.558034	30.278036	134.243523
	9.751729	25.310286	72.136002	27.569299	125.015586
	9.751729	27.062437	75.454076	28.365986	130.882499
	9.702473	29.770307	72.136002	28.525324	130.431633
	9.628589	26.584578	73.400030	28.525324	128.509931
	9.554704	25.788145	72.136002	28.047311	125.971458
	9.924126	28.336729	73.400030	26.135261	127.872020
	9.603961	24.513853	70.239960	28.843999	123.597812
	9.702473	26.425291	73.874041	28.365986	128.665318
	9.431564	31.044600	74.348051	29.003336	134.395986
	9.702473	24.832426	71.503988	26.453936	122.790350
	9.776358	24.513853	72.926020	27.409961	124.849834
	10.022639	30.407453	75.138069	30.437373	135.982896
	9.973383	25.310286	71.819995	26.294599	123.424879
	9.702473	27.062437	74.190048	31.074724	132.327208
	9.653217	28.018156	74.506055	29.481348	132.005559
	9.751729	26.584578	71.819995	26.772611	125.177183
	10.121151	24.513853	72.926020	27.409961	124.849834
	9.800986	23.717420	72.294006	27.887974	123.899400
	10.318176	27.221723	74.032044	28.843999	130.097766
	9.850242	26.743864	72.768016	29.800024	129.311903
	9.776358	25.310286	72.926020	26.613274	124.849579
	9.825614	29.133161	75.612079	32.986774	137.732014
	9.776358	24.673140	71.503988	27.728636	123.905764
	9.702473	26.266004	74.822062	27.728636	128.816702
	9.800986	29.133161	74.348051	29.959361	133.440573
	9.751729	27.381010	74.190048	29.481348	131.052406
	9.554704	26.584578	73.242027	28.525324	128.351928
	9.751729	26.266004	72.136002	27.091286	125.493292
	9.973383	28.973875	74.980065	29.481348	133.435288
	9.603961	27.381010	73.874041	31.074724	132.329774
	9.899498	26.743864	73.400030	27.409961	127.553855
	9.554704	28.655302	73.400030	28.365986	130.421318
	9.751729	25.628858	73.084023	27.569299	126.282180
	9.653217	26.903150	72.926020	28.365986	128.195156
	9.899498	28.655302	73.716037	29.003336	131.374675
	9.653217	28.336729	74.032044	30.278036	132.646809
	9.874870	26.425291	74.032044	30.118699	130.576033
	9.603961	28.336729	72.768016	27.569299	128.674044
	9.998011	26.266004	73.084023	27.887974	127.238001
	9.579332	26.743864	73.242027	28.365986	128.351877
	9.924126	28.973875	73.242027	29.162674	131.378575
	9.308423	29.133161	75.138069	30.118699	134.389928
	9.973383	24.195280	71.029978	25.019899	120.245156
	9.431564	28.655302	73.558034	30.278036	132.491372
	9.603961	23.876707	70.081957	24.541886	118.500550
	9.431564	25.947432	73.400030	27.250623	126.598085
	9.653217	29.292448	72.768016	28.843999	130.904463
	9.431564	27.699583	74.348051	29.481348	131.528983
	9.677845	26.106718	73.242027	28.365986	127.714731
	9.283795	28.336729	74.664058	27.409961	130.410748
	9.283795	26.425291	71.661992	28.843999	126.931281
	9.160654	26.425291	72.926020	29.640686	128.991997
	9.259167	25.947432	73.242027	27.409961	126.599419
	9.209910	27.062437	73.084023	28.047311	128.193771
	9.136026	26.106718	74.506055	28.365986	128.978758
	9.234539	26.106718	72.610012	28.365986	127.082717
	8.692720	24.991712	71.345985	26.772611	123.110308
	9.062142	23.876707	71.345985	24.541886	119.764578
	8.544951	25.628858	71.661992	30.118699	127.409549
	9.062142	26.903150	73.084023	29.481348	129.468522
	8.815860	26.425291	73.242027	27.091286	126.758604
	8.939001	27.381010	73.558034	28.525324	129.464367
	8.347926	25.628858	71.819995	27.569299	125.018152
	8.988257	26.584578	73.084023	28.365986	128.034586
	8.249413	25.469572	71.977998	26.135261	123.582831
	8.766604	24.513853	71.187981	28.365986	124.067820
	8.397182	24.832426	73.716037	27.250623	125.799087
	9.037514	26.266004	74.190048	26.931949	127.388001
	8.421810	26.425291	71.029978	26.613274	124.068542
	8.914373	26.425291	73.242027	28.525324	128.192641
	8.569579	29.133161	75.454076	31.074724	135.661961
	8.889745	26.584578	72.926020	26.294599	125.805196
	8.126273	23.876707	67.869908	27.250623	118.997238
	8.618835	25.310286	71.819995	28.365986	125.496267
	8.323298	25.150999	71.503988	25.816586	122.471573
	9.136026	26.903150	70.713971	26.294599	123.911720
	8.150901	25.628858	74.032044	27.091286	126.752188
	8.815860	25.150999	70.713971	27.250623	123.115593
	8.274041	28.018156	71.661992	26.772611	126.452759
	9.012885	25.150999	71.345985	25.816586	122.313569
	8.446438	24.354567	72.768016	28.843999	125.966581
	9.086770	26.584578	70.081957	26.931949	123.598483
	8.446438	25.788145	72.136002	26.453936	124.378083
	8.889745	24.991712	72.926020	27.569299	125.487031
	8.298670	24.195280	71.029978	26.931949	122.157206
	9.062142	25.310286	72.926020	26.772611	125.008916
	8.274041	22.283842	69.133936	23.585861	115.003638
	9.086770	22.602415	70.871974	26.613274	120.087663
	8.520323	26.903150	72.926020	30.118699	129.947868
	8.914373	22.283842	69.765950	25.179236	117.229028
	8.594207	23.876707	69.449943	26.135261	119.461911
	8.988257	24.035993	70.871974	26.294599	121.202566
	8.569579	23.080275	70.555967	26.135261	119.771503
	8.766604	23.080275	70.871974	26.294599	120.246847
	8.594207	23.239561	69.133936	25.179236	117.552733
	9.209910	22.283842	69.765950	26.294599	118.344390
	8.717348	25.310286	73.716037	28.206648	127.232971
	9.259167	25.150999	71.345985	26.931949	123.428932
	8.741976	23.876707	72.768016	26.931949	123.576672
	9.259167	23.080275	70.397964	25.657249	119.135487
	8.914373	24.991712	71.819995	26.931949	123.743656
	9.086770	25.469572	71.977998	27.250623	124.698194
	8.889745	24.035993	72.452009	28.684661	125.172663
	9.062142	23.080275	67.869908	24.860561	115.810743
	8.914373	24.195280	72.136002	26.135261	122.466543
	8.840489	23.717420	70.713971	26.135261	120.566652
	8.692720	26.106718	71.819995	27.569299	125.496012
	8.939001	25.150999	71.187981	26.453936	122.792916
	8.963629	23.398847	69.765950	23.426524	116.591321
	8.840489	25.310286	71.819995	29.003336	126.133617
	8.988257	26.266004	71.187981	28.206648	125.660634
	8.668092	24.991712	72.452009	25.338573	122.782295
	8.963629	24.673140	69.923953	26.135261	120.732354
	8.421810	26.106718	71.503988	26.613274	124.223980
	9.012885	24.673140	71.345985	26.135261	122.154385
	8.175529	24.195280	71.029978	26.772611	121.997868
	9.037514	24.832426	71.661992	25.019899	121.514316
	8.495695	24.991712	70.871974	28.365986	124.229673
	8.939001	24.354567	71.977998	27.091286	123.423851
	8.323298	25.469572	71.503988	25.975924	122.949484
	9.111398	25.788145	73.874041	26.772611	126.434797
	8.471067	24.354567	70.081957	26.931949	121.368472
	9.111398	25.469572	73.716037	26.294599	125.480208
	8.249413	25.310286	71.977998	25.657249	122.945533
	9.136026	24.991712	72.452009	29.003336	126.447058
	8.544951	25.788145	69.923953	26.135261	121.847359
	9.086770	24.991712	71.503988	25.657249	122.152949
	8.569579	24.832426	72.452009	26.613274	123.897709
	9.037514	24.991712	70.555967	25.975924	121.523603
	8.840489	25.628858	74.032044	26.931949	126.592851
	9.259167	26.425291	72.768016	27.728636	126.921943
	8.840489	23.558134	71.187981	26.931949	121.678064
	9.677845	24.991712	71.503988	27.569299	124.064999
	9.111398	24.673140	74.348051	25.816586	124.837777
	9.530076	24.035993	69.607946	25.975924	119.619863
	8.889745	25.150999	72.136002	26.931949	124.218950
	9.505448	22.124555	69.291939	24.223211	115.639706
	9.012885	25.150999	71.503988	26.931949	123.586936
	9.431564	26.743864	73.558034	26.453936	126.755834
	8.988257	24.832426	71.029978	28.206648	124.069052
	9.259167	25.150999	71.977998	27.091286	124.220283
	8.963629	25.310286	71.977998	25.657249	122.945533
	9.160654	26.743864	73.242027	26.772611	126.758502
	9.037514	23.239561	68.343918	25.019899	116.603377
	9.259167	25.310286	71.503988	27.091286	123.905560
	8.668092	29.292448	72.926020	26.772611	128.991079
	9.234539	25.310286	71.345985	27.250623	123.906894
	9.209910	28.177443	76.560100	31.552736	136.290278
	9.160654	28.973875	71.661992	26.613274	127.249140
	9.259167	28.336729	74.980065	28.365986	131.682780
	8.791232	26.106718	73.716037	28.206648	128.029404
	8.963629	27.540297	74.822062	26.294599	128.656957
	8.963629	25.150999	70.239960	26.772611	122.163570
	9.086770	26.425291	73.400030	27.887974	127.713295
	8.815860	28.496015	72.768016	29.640686	130.904718
	9.111398	25.469572	72.610012	25.975924	124.055508
	8.717348	25.150999	70.397964	26.453936	122.002899
	9.086770	26.903150	70.081957	25.179236	122.164343
	8.495695	25.469572	72.136002	26.772611	124.378185
	9.209910	24.513853	70.871974	25.816586	121.202413
	8.692720	26.584578	74.190048	26.453936	127.228561
	9.283795	26.266004	72.136002	28.843999	127.246005
	8.692720	23.558134	71.345985	25.497911	120.402030
	9.234539	24.195280	70.397964	24.223211	118.816455
	8.569579	26.106718	75.770083	27.409961	129.286762
	9.062142	25.150999	70.871974	27.409961	123.432934
	8.471067	24.832426	72.136002	26.453936	123.422364
	9.136026	26.106718	72.926020	25.975924	125.008661
	8.520323	24.673140	71.977998	28.206648	124.857787
	9.283795	22.443129	69.765950	25.657249	117.866327
	8.569579	26.106718	71.977998	26.931949	125.016665
	9.751729	25.788145	72.610012	26.294599	124.692756
	8.372554	25.150999	72.768016	27.409961	125.328976
	9.357679	25.469572	73.242027	26.931949	125.643547
	8.692720	25.788145	70.397964	26.453936	122.640045
	9.209910	25.628858	71.819995	25.019899	122.468752
	8.692720	24.991712	72.136002	25.497911	122.625625
	9.259167	25.469572	72.768016	26.294599	124.532187
	8.643463	24.195280	71.187981	27.728636	123.111897
	9.653217	26.106718	73.558034	27.728636	127.393388
	8.840489	25.628858	70.871974	25.338573	121.839406
	9.308423	25.469572	71.977998	26.294599	123.742169
	8.865117	29.770307	72.768016	27.569299	130.107622
	9.382307	24.991712	71.819995	26.294599	123.106306
	9.037514	26.425291	71.029978	26.135261	123.590530
	9.160654	24.991712	72.294006	25.975924	123.261641
	8.988257	27.381010	76.402096	28.843999	132.627105
	9.136026	24.035993	68.501922	25.497911	118.035826
	8.988257	25.310286	72.136002	26.453936	123.900224
	9.136026	27.381010	74.348051	28.525324	130.254385
	8.815860	25.947432	72.136002	25.816586	123.900020
	9.086770	25.788145	71.819995	26.931949	124.540089
	8.889745	26.266004	74.190048	29.481348	129.937400
	9.012885	26.106718	72.136002	28.684661	126.927381
	9.160654	27.699583	72.610012	26.613274	126.922869
	8.889745	25.469572	72.294006	25.338573	123.102151
	8.963629	23.558134	70.555967	24.701224	118.815325
	8.815860	27.381010	75.770083	28.843999	131.995091
	9.259167	25.628858	70.713971	26.931949	123.274777
	8.569579	27.858870	71.819995	27.250623	126.929488
	9.086770	25.628858	72.136002	26.294599	124.059459
	8.421810	25.469572	73.084023	26.294599	124.848194
	9.185282	24.832426	72.136002	26.931949	123.900377
	8.495695	26.106718	75.138069	29.162674	130.407460
	9.136026	28.973875	73.084023	30.437373	132.495272
	8.544951	24.991712	71.977998	25.657249	122.626959
	9.406936	25.788145	72.768016	25.497911	124.054072
	8.791232	28.018156	72.768016	26.772611	127.558783
	9.136026	25.310286	74.348051	25.975924	125.634260
	8.914373	25.788145	71.503988	27.409961	124.702094
	9.234539	25.947432	72.926020	27.091286	125.964737
	8.840489	25.788145	71.819995	25.019899	122.628039
	9.012885	24.354567	71.029978	26.294599	121.679143
	9.086770	24.195280	73.716037	25.657249	123.568566
	8.766604	25.947432	70.081957	26.613274	122.642662
	9.062142	27.381010	72.610012	24.860561	124.851584
	8.643463	25.947432	72.452009	26.453936	124.853376
	8.594207	27.062437	73.400030	28.365986	128.828453
	8.495695	27.062437	74.822062	26.135261	128.019760
	8.569579	27.381010	71.977998	28.047311	127.406319
	8.298670	24.195280	72.452009	25.657249	122.304538
	9.037514	24.513853	72.452009	27.250623	124.216486
	8.347926	28.177443	74.032044	30.596711	132.806197
	9.800986	25.469572	74.822062	26.453936	126.745570
	8.520323	26.425291	70.555967	25.657249	122.638507
	9.062142	25.150999	71.503988	25.657249	122.312236
	9.062142	27.699583	72.452009	27.250623	127.402216
	9.382307	24.832426	70.397964	25.338573	120.568963
	8.939001	27.221723	75.612079	28.206648	131.040451
	9.136026	24.832426	68.501922	24.063874	117.398221
	9.111398	26.266004	72.294006	26.294599	124.854609
	8.889745	26.106718	72.768016	29.959361	128.834095
	8.791232	25.469572	71.503988	27.569299	124.542859
	8.766604	25.788145	73.716037	25.975924	125.480106
	8.791232	28.814589	72.768016	25.657249	127.239853
	8.520323	26.266004	71.661992	26.294599	124.222595
	9.086770	26.266004	73.558034	27.728636	127.552674
	8.397182	24.991712	71.661992	26.613274	123.266978
	8.963629	26.106718	74.664058	26.453936	127.224712
	8.347926	24.832426	71.345985	25.179236	121.357647
	8.741976	24.832426	72.294006	28.843999	125.970430
	8.446438	23.876707	69.607946	25.179236	118.663889
	9.111398	25.469572	70.871974	24.860561	121.202107
	8.668092	26.106718	75.138069	26.135261	127.380048
	9.160654	25.150999	69.923953	25.816586	120.891538
	9.086770	28.655302	72.926020	27.409961	128.991283
	9.160654	26.584578	72.768016	27.409961	126.762555
	8.668092	26.584578	72.768016	27.250623	126.603217
	8.914373	25.947432	73.716037	24.860561	124.524029
	8.939001	25.947432	70.239960	27.728636	123.916028
	9.185282	24.195280	70.871974	26.453936	121.521190
	8.963629	26.425291	72.452009	26.135261	125.012561
	9.062142	26.266004	71.661992	26.135261	124.063257
	8.939001	27.540297	75.296072	27.409961	130.246330
	9.111398	22.283842	66.763883	23.107848	112.155574
	8.939001	25.469572	72.452009	26.613274	124.534855
	8.791232	27.858870	71.819995	25.975924	125.654788
	8.939001	26.425291	74.664058	25.179236	126.268585
	8.594207	24.035993	74.348051	28.206648	126.590693
	8.889745	25.628858	71.661992	28.684661	125.975511
	8.421810	26.106718	71.661992	26.135261	123.903971
	8.914373	27.381010	71.977998	25.657249	125.016257
	8.200157	26.743864	72.926020	27.091286	126.761170
	9.111398	25.469572	72.452009	26.453936	124.375517
	8.372554	28.177443	73.716037	27.569299	129.462778
	9.136026	26.106718	70.713971	25.975924	122.796612
	8.569579	23.717420	70.555967	24.701224	118.974611
	9.431564	24.832426	71.503988	24.860561	121.196975
	8.520323	25.469572	71.819995	27.887974	125.177541
	9.136026	25.469572	71.819995	26.135261	123.424828
	8.791232	24.354567	70.081957	24.223211	118.659734
	9.283795	26.425291	72.452009	26.613274	125.490574
	9.111398	28.655302	71.819995	25.975924	126.451221
	8.914373	26.266004	73.874041	26.931949	127.071994
	8.766604	26.743864	72.294006	27.887974	126.925843
	9.480820	27.540297	71.977998	25.179236	124.697531
	8.791232	26.106718	71.977998	28.525324	126.610040
	9.185282	24.832426	71.819995	29.003336	125.655757
	8.889745	24.673140	75.454076	26.772611	126.899826
	8.963629	25.628858	70.239960	25.338573	121.207392
	8.889745	25.947432	72.452009	26.772611	125.172051
	8.939001	26.743864	72.452009	27.409961	126.605834
	8.840489	26.743864	72.610012	27.091286	126.445163
	8.865117	28.496015	75.770083	27.887974	132.154071
	8.815860	26.266004	71.029978	25.338573	122.634555
	9.012885	25.150999	71.977998	28.684661	125.813659
	9.234539	26.743864	71.345985	27.250623	125.340472
	9.160654	25.310286	70.871974	24.860561	121.042821
	8.766604	26.266004	75.928086	26.931949	129.126039
	8.544951	24.195280	69.133936	25.338573	118.667789
	9.209910	27.381010	72.926020	27.569299	127.876328
	8.692720	26.106718	71.977998	26.772611	124.857327
	8.840489	26.106718	70.081957	24.541886	120.730561
	8.594207	25.628858	75.138069	24.701224	125.468151
	8.889745	27.540297	69.449943	26.135261	123.125500
	8.618835	27.221723	73.558034	29.640686	130.420443
	8.865117	25.469572	72.926020	27.250623	125.646215
	8.200157	25.469572	72.610012	26.294599	124.374183
	9.111398	24.832426	72.294006	25.179236	122.305668
	8.569579	27.381010	72.136002	27.250623	126.767636
	9.012885	27.062437	72.768016	27.569299	127.399752
	8.446438	28.018156	74.348051	28.525324	130.891531
	9.209910	26.903150	71.345985	25.497911	123.747046
	8.347926	27.699583	72.926020	27.250623	127.876226
	9.234539	24.513853	71.977998	27.091286	123.583137
	8.126273	25.310286	71.503988	27.569299	124.383572
	8.840489	25.150999	71.345985	24.701224	121.198207
	8.446438	26.584578	72.926020	26.453936	125.964533
	9.086770	25.469572	72.294006	25.975924	123.739501
	8.618835	26.266004	71.661992	26.931949	124.859945
	9.037514	28.336729	71.503988	26.135261	125.975978
	8.347926	25.628858	72.136002	26.294599	124.059459
	9.086770	23.398847	69.765950	23.107848	116.272646
	8.298670	26.266004	71.345985	26.931949	124.543937
	9.160654	25.788145	70.239960	26.931949	122.960054
	8.569579	25.310286	71.977998	25.657249	122.945533
	9.136026	23.398847	71.029978	24.860561	119.289386
	8.889745	26.743864	72.452009	27.091286	126.287159
	9.456192	22.920988	72.294006	23.904536	119.119530
	9.062142	26.266004	70.397964	26.294599	122.958567
	8.766604	25.788145	72.452009	26.135261	124.375415
	8.717348	26.743864	71.819995	25.019899	123.583758
	9.136026	26.584578	72.294006	28.525324	127.403907
	8.963629	27.540297	76.718104	29.162674	133.421074
	9.899498	27.221723	69.765950	25.657249	122.644922
	8.914373	25.947432	72.136002	25.975924	124.059357
	9.111398	22.443129	69.133936	23.904536	115.481600
	8.840489	26.106718	72.294006	27.409961	125.810685
	8.865117	25.788145	74.980065	26.294599	127.062809
	8.741976	26.743864	70.555967	26.135261	123.435092
	8.840489	26.743864	72.926020	27.250623	126.920507
	8.840489	26.903150	73.242027	29.800024	129.945200
	8.544951	28.336729	71.187981	27.569299	127.094009
	8.865117	26.106718	73.716037	25.816586	125.639341
	8.741976	22.761702	69.291939	23.904536	115.958177
	8.865117	24.673140	72.136002	24.860561	121.669703
	8.347926	24.832426	71.661992	25.816586	122.311004
	8.963629	26.584578	72.294006	26.772611	125.651194
	8.766604	26.743864	72.136002	27.091286	125.971152
	8.840489	25.947432	72.452009	25.657249	124.056689
	8.692720	27.699583	71.187981	27.091286	125.978850
	9.086770	26.266004	72.294006	27.887974	126.447984
	8.249413	24.513853	70.871974	25.019899	120.405726
	9.062142	27.221723	74.980065	25.816586	128.018374
	8.372554	28.814589	72.294006	29.003336	130.111930
	8.914373	26.584578	73.558034	28.047311	128.189922
	8.397182	24.832426	71.187981	25.816586	121.836993
	9.185282	28.336729	73.400030	27.409961	129.146720
	8.274041	27.381010	76.876107	27.409961	131.667078
	8.889745	27.221723	70.871974	28.843999	126.937696
	8.446438	25.310286	71.029978	25.816586	122.156849
	9.185282	29.611021	72.294006	25.975924	127.880950
	8.372554	28.655302	73.874041	28.365986	130.895329
	9.160654	25.469572	74.664058	25.975924	126.109554
	8.520323	26.425291	70.239960	26.613274	123.278525
	9.185282	26.743864	72.452009	26.453936	125.649809
	8.495695	25.469572	72.452009	26.453936	124.375517
	9.062142	24.354567	71.029978	24.382548	119.767093
	8.692720	25.628858	74.190048	27.091286	126.910192
	9.357679	29.611021	72.926020	29.800024	132.337064
	8.692720	26.425291	71.819995	26.294599	124.539885
	9.234539	24.832426	72.136002	24.382548	121.350977
	8.889745	25.788145	71.029978	25.019899	121.838021
	9.259167	26.425291	72.610012	26.294599	125.329902
	9.111398	24.035993	70.871974	24.541886	119.449854
	9.283795	25.150999	70.713971	25.975924	121.840893
	8.939001	25.947432	72.294006	25.975924	124.217361
	9.530076	29.133161	72.294006	25.497911	126.925078
	8.914373	25.469572	70.713971	27.569299	123.752841
	9.259167	22.920988	69.607946	24.541886	117.070820
	8.865117	30.407453	73.242027	26.613274	130.262754
	9.209910	26.106718	72.136002	25.179236	123.421956
	8.741976	24.673140	71.819995	25.975924	122.469058
	8.717348	24.035993	74.032044	26.613274	124.681311
	8.914373	28.336729	73.242027	28.525324	130.104079
	8.372554	25.469572	72.294006	25.657249	123.420826
	9.259167	26.106718	72.452009	27.091286	125.650013
	8.397182	26.903150	71.977998	28.047311	126.928460
	9.333051	25.150999	72.768016	24.541886	122.460901
	8.200157	27.699583	72.294006	26.931949	126.925537
	9.259167	24.195280	70.555967	24.382548	119.133796
	8.495695	27.699583	72.294006	26.294599	126.288187
	9.209910	25.788145	71.187981	25.657249	122.633375
	8.766604	25.788145	75.454076	26.453936	127.696157
	9.456192	27.699583	72.136002	27.250623	127.086209
	8.865117	27.062437	72.926020	28.525324	128.513780
	9.136026	24.991712	71.503988	26.453936	122.949636
	8.865117	26.266004	71.977998	26.135261	124.379264
	9.259167	29.133161	77.034110	28.365986	134.533258
	8.865117	28.655302	70.397964	26.135261	125.188527
	8.815860	27.062437	73.242027	27.250623	127.555087
	9.062142	26.743864	72.452009	27.091286	126.287159
	8.471067	27.540297	71.029978	25.816586	124.386860
	8.988257	25.788145	74.348051	24.541886	124.678082
	8.520323	24.035993	69.765950	26.135261	119.937204
	9.012885	25.628858	71.819995	28.525324	125.974177
	8.594207	26.743864	72.452009	27.569299	126.765172
	8.939001	25.788145	69.923953	23.267186	118.979284
	8.692720	26.584578	74.664058	25.816586	127.065222
	9.209910	26.584578	73.084023	27.091286	126.759886
	8.668092	27.540297	72.136002	26.931949	126.608247
	9.062142	29.133161	74.822062	28.684661	132.639884
	8.618835	26.584578	72.452009	26.931949	125.968535
	9.308423	24.673140	71.503988	23.107848	119.284976
	8.963629	28.336729	74.822062	30.278036	133.436826
	9.283795	30.885313	75.454076	32.349424	138.688812
	8.939001	27.381010	73.400030	27.250623	128.031664
	8.840489	26.584578	72.452009	26.613274	125.649860
	8.791232	30.088881	74.980065	27.409961	132.478906
	8.594207	26.106718	71.819995	26.453936	124.380649
	8.717348	25.469572	72.136002	26.453936	124.059510
	8.569579	24.673140	72.610012	26.613274	123.896426
	8.889745	25.628858	70.871974	24.223211	120.724044
	8.298670	24.832426	73.716037	28.365986	126.914449
	8.889745	26.106718	71.819995	29.162674	127.089387
	8.274041	25.628858	71.187981	24.382548	121.199388
	9.111398	30.248167	75.454076	29.322011	135.024254
	8.126273	28.177443	73.874041	28.206648	130.258131
	9.136026	23.239561	72.452009	23.426524	119.118094
	8.421810	26.425291	69.133936	25.019899	120.579125
	9.136026	27.699583	73.084023	27.728636	128.512242
	8.520323	25.310286	72.136002	25.019899	122.466186
	9.185282	25.150999	71.345985	28.365986	124.862970
	8.668092	27.699583	76.876107	28.843999	133.419689
	9.037514	24.195280	68.185914	22.948511	115.329705
	8.963629	26.266004	72.610012	26.135261	125.011278
	9.086770	27.381010	72.452009	26.931949	126.764968
	8.741976	27.699583	72.768016	27.091286	127.558885
	9.062142	27.062437	75.138069	27.091286	129.291792
	8.988257	26.106718	70.397964	25.975924	122.480605
	8.939001	26.743864	72.136002	25.019899	123.899765
	8.766604	26.425291	72.136002	28.206648	126.767942
	8.569579	26.903150	72.926020	29.959361	129.788531
	9.012885	26.584578	73.084023	26.772611	126.441211
	8.520323	26.106718	71.977998	25.019899	123.104615
	8.963629	27.699583	71.345985	25.975924	125.021491
	8.520323	25.788145	71.819995	26.453936	124.062076
	8.544951	25.469572	71.187981	25.657249	122.314802
	8.520323	27.858870	73.874041	26.453936	128.186846
	9.185282	25.628858	69.923953	23.426524	118.979335
	8.668092	25.628858	71.345985	28.047311	125.022154
	9.012885	24.991712	71.029978	27.250623	123.272314
	8.101645	26.266004	71.029978	24.541886	121.837868
	9.111398	24.195280	73.084023	23.585861	120.865164
	8.471067	24.832426	68.343918	24.541886	117.718230
	9.160654	25.469572	71.187981	25.019899	121.677452
	8.544951	28.177443	72.610012	26.931949	127.719403
	8.865117	25.788145	70.713971	25.338573	121.840689
	8.544951	26.584578	74.822062	25.816586	127.223225
	9.185282	28.655302	69.449943	27.728636	125.833880
	8.914373	26.743864	72.294006	27.887974	126.925843
	8.815860	26.584578	72.926020	25.975924	125.486521
	8.741976	25.150999	71.977998	26.772611	123.901608
	9.259167	26.266004	74.348051	26.135261	126.749316
	8.717348	26.425291	70.239960	26.613274	123.278525
	9.382307	26.106718	71.661992	26.135261	123.903971
	8.692720	24.991712	70.397964	24.382548	119.772225
	9.111398	27.540297	71.029978	24.223211	122.793485
	8.766604	26.266004	74.032044	27.250623	127.548672
	8.889745	24.195280	68.501922	26.613274	119.310475
	8.544951	26.425291	71.819995	26.135261	124.380547
	9.086770	27.540297	72.768016	26.135261	126.443573
	8.865117	27.221723	72.452009	26.453936	126.127668
	8.815860	25.788145	71.819995	25.657249	123.265389
	8.791232	26.584578	71.503988	26.931949	125.020514
	9.136026	29.133161	70.871974	25.975924	125.981059
	8.594207	26.743864	72.768016	28.684661	128.196541
	8.963629	25.788145	71.977998	26.135261	123.901404
	8.815860	25.947432	72.926020	29.322011	128.195462
	8.594207	27.381010	71.187981	27.409961	125.978952
	9.136026	24.035993	70.081957	24.063874	118.181824
	8.372554	25.788145	72.294006	26.453936	124.536087
	8.865117	26.584578	71.819995	26.613274	125.017846
	8.421810	26.903150	74.348051	26.931949	128.183150
	8.963629	26.106718	69.607946	26.294599	122.009263
	8.323298	25.310286	70.713971	23.745199	119.769455
	9.086770	27.540297	71.345985	27.409961	126.296242
	8.397182	28.018156	72.768016	29.800024	130.586196
	8.791232	25.469572	74.822062	25.497911	125.789545
	8.421810	28.018156	70.713971	26.772611	125.504737
	9.086770	27.381010	72.768016	26.453936	126.602962
	8.471067	26.425291	72.294006	27.091286	125.810583
	9.111398	28.177443	73.084023	28.047311	129.308776
	8.471067	25.150999	73.716037	24.541886	123.408922
	8.668092	27.221723	70.713971	25.338573	123.274267
	8.471067	26.743864	72.294006	29.481348	128.519218
	9.111398	25.628858	71.503988	27.569299	124.702145
	8.840489	27.540297	69.607946	23.585861	120.734104
	8.939001	27.858870	75.138069	26.772611	129.769549
	9.012885	23.398847	68.027911	23.904536	115.331295
	9.333051	24.035993	71.345985	25.497911	120.879889
	9.456192	26.106718	71.187981	25.816586	123.111285
	9.259167	24.832426	70.397964	25.179236	120.409626
	9.234539	24.673140	73.242027	22.948511	120.863677
	9.160654	25.469572	68.659925	25.657249	119.786746
	8.865117	27.540297	71.819995	28.684661	128.044953
	8.889745	26.903150	72.294006	27.569299	126.766455
	8.939001	26.743864	72.452009	26.613274	125.809147
	9.062142	26.425291	73.716037	25.019899	125.161226
	8.791232	26.425291	70.713971	25.975924	123.115185
	9.111398	25.628858	71.029978	26.453936	123.112772
	8.668092	26.266004	72.610012	26.772611	125.648628
	8.914373	24.513853	69.765950	24.701224	118.981026
	9.086770	29.292448	72.452009	25.179236	126.923693
	9.160654	26.425291	71.345985	27.569299	125.340574
	8.471067	25.469572	70.871974	26.294599	122.636145
	8.692720	27.699583	71.503988	25.019899	124.223470
	9.062142	28.177443	73.084023	26.613274	127.874739
	8.347926	23.876707	72.926020	24.701224	121.503950
	8.618835	28.973875	74.980065	30.756049	134.709988
	8.397182	25.628858	71.029978	25.497911	122.156747
	9.259167	23.876707	69.607946	23.267186	116.751839
	8.200157	25.628858	70.555967	24.382548	120.567374
	8.939001	26.266004	74.348051	27.728636	128.342692
	8.249413	28.655302	70.397964	27.409961	126.463227
	9.160654	27.540297	73.084023	27.091286	127.715606
	8.224785	25.310286	71.503988	25.657249	122.471522
	8.914373	26.425291	70.397964	25.816586	122.639841
	8.249413	28.177443	76.560100	28.206648	132.944191
	8.914373	27.221723	71.345985	27.728636	126.296344
	8.003132	25.469572	71.661992	25.657249	122.788812
	9.308423	27.540297	72.452009	26.294599	126.286904
	8.766604	26.743864	71.503988	28.525324	126.773176
	9.406936	26.903150	74.664058	27.091286	128.658495
	8.397182	29.292448	72.768016	28.525324	130.585788
	8.914373	28.177443	71.187981	25.179236	124.544660
	8.692720	25.788145	71.187981	26.294599	123.270725
	9.160654	25.788145	71.345985	25.975924	123.110053
	8.815860	25.469572	71.187981	25.019899	121.677452
	9.209910	25.469572	68.659925	24.541886	118.671383
	8.963629	25.310286	72.294006	25.975924	123.580215
	9.086770	26.106718	71.661992	27.887974	125.656683
	8.495695	27.062437	72.768016	28.206648	128.037102
	9.185282	24.832426	71.345985	22.789174	118.967584
	8.717348	24.991712	72.452009	23.426524	120.870245
	8.815860	26.106718	71.977998	26.294599	124.379315
	8.717348	28.814589	73.716037	28.684661	131.215286
	8.643463	26.743864	71.977998	27.409961	126.131823
	8.741976	27.699583	76.876107	27.887974	132.463663
	8.495695	25.788145	71.029978	25.657249	122.475371
	8.668092	27.540297	73.084023	28.843999	129.468318
	8.298670	26.584578	71.977998	27.409961	125.972537
	8.988257	26.743864	71.977998	26.613274	125.335136
	8.323298	24.991712	72.926020	24.541886	122.459618
	8.766604	28.018156	69.765950	26.294599	124.078704
	8.397182	26.266004	71.977998	26.772611	125.016614
	9.283795	24.832426	70.397964	24.541886	119.772276
	8.274041	28.336729	71.661992	25.816586	125.815307
	9.062142	24.832426	69.607946	24.223211	118.663583
	8.495695	25.469572	70.397964	28.525324	124.392859
	8.840489	25.469572	72.768016	27.250623	125.488212
	8.569579	26.903150	71.977998	25.816586	124.697735
	9.234539	24.991712	69.449943	24.541886	118.983541
	8.569579	27.221723	72.926020	27.409961	127.557704
	9.406936	24.832426	68.975932	25.179236	118.987594
	8.865117	28.177443	71.977998	26.613274	126.768715
	9.136026	26.584578	71.187981	26.453936	124.226495
	8.544951	26.106718	71.345985	25.497911	122.950614
	8.791232	25.628858	74.190048	27.409961	127.228867
	8.766604	28.018156	70.871974	29.162674	128.052804
	8.741976	26.743864	71.977998	26.453936	125.175798
	8.668092	27.381010	72.452009	25.975924	125.808943
	8.766604	26.425291	71.345985	26.135261	123.906537
	8.741976	29.611021	75.138069	26.613274	131.362363
	8.471067	25.469572	70.081957	26.135261	121.686790
	8.791232	24.832426	70.555967	25.816586	121.204979
	8.495695	26.743864	74.032044	28.206648	128.982556
	8.766604	27.062437	72.610012	26.772611	126.445060
	8.175529	27.381010	76.718104	30.437373	134.536487
	9.062142	28.177443	71.661992	28.684661	128.524095
	8.372554	29.133161	74.506055	28.047311	131.686527
	9.111398	28.018156	71.819995	26.613274	126.451425
	8.298670	25.947432	70.871974	26.453936	123.273342
	8.988257	25.788145	74.190048	26.453936	126.432129
	8.421810	26.903150	69.133936	25.657249	121.694334
	9.136026	26.425291	71.503988	24.860561	122.789840
	8.372554	24.195280	69.923953	26.294599	120.413832
	9.209910	26.743864	71.029978	27.569299	125.343140
	8.840489	27.699583	74.506055	27.569299	129.774936
	8.988257	27.062437	71.029978	26.772611	124.865026
	8.865117	26.584578	72.610012	26.613274	125.807864
	9.456192	26.743864	71.977998	27.250623	125.972486
	8.963629	26.266004	69.449943	24.860561	120.576508
	8.914373	25.310286	72.610012	25.338573	123.258871
	8.569579	24.195280	68.659925	23.745199	116.600404
	8.815860	29.451735	71.661992	28.684661	129.798387
	8.815860	25.469572	70.713971	26.453936	122.637479
	8.692720	24.195280	70.555967	24.860561	119.611808
	8.963629	26.266004	72.294006	26.772611	125.332621
	8.495695	25.628858	69.607946	25.816586	121.053391
	8.815860	25.947432	72.452009	27.409961	125.809401
	7.978504	27.540297	73.242027	28.206648	128.988972
	9.062142	26.106718	71.029978	25.975924	123.112619
	8.397182	29.451735	74.032044	27.250623	130.734402
	8.717348	26.584578	70.397964	27.569299	124.551839
	8.200157	26.425291	72.926020	29.162674	128.513984
	8.840489	29.133161	73.716037	29.003336	131.852534
	8.249413	26.743864	71.187981	25.497911	123.429756
	9.136026	28.177443	76.876107	27.887974	132.941523
	8.200157	26.425291	69.607946	26.772611	122.805848
	9.136026	26.903150	72.926020	27.728636	127.557806
	8.446438	28.973875	71.029978	26.135261	126.139113
	9.012885	25.788145	70.555967	25.975924	122.320036
	8.544951	24.354567	73.400030	24.223211	121.977808
	9.111398	24.195280	68.501922	27.409961	120.107163
	8.643463	25.788145	71.503988	27.569299	124.861432
	9.160654	24.195280	70.871974	25.019899	120.087153
	8.963629	25.150999	71.029978	25.816586	121.997563
	8.865117	25.788145	74.348051	26.294599	126.430795
	8.618835	26.584578	69.291939	25.975924	121.852440
	8.840489	26.584578	72.136002	26.931949	125.652528
	8.594207	27.540297	73.084023	30.756049	131.380368
	8.569579	28.973875	71.977998	26.613274	127.565147
	9.062142	24.195280	73.084023	26.931949	124.211252
	8.274041	25.788145	69.765950	27.887974	123.442068
	8.963629	24.832426	69.449943	23.267186	117.549554
	8.175529	26.743864	72.136002	26.931949	125.811815
	8.668092	26.106718	72.136002	27.409961	125.652681
	8.175529	26.743864	74.348051	27.569299	128.661214
	8.791232	26.743864	70.397964	27.091286	124.233114
	8.471067	28.018156	72.294006	26.294599	126.606760
	9.111398	27.062437	72.136002	27.409961	126.608400
	8.249413	27.381010	72.294006	30.756049	130.431064
	9.456192	32.000318	75.454076	28.843999	136.298393
	8.323298	27.381010	71.187981	26.294599	124.863590
	9.111398	24.513853	70.713971	25.657249	120.885072
	9.012885	26.743864	70.713971	25.975924	123.433758
	9.111398	24.513853	70.239960	24.860561	119.614374
	8.668092	25.788145	73.084023	27.409961	126.282129
	8.914373	25.310286	69.291939	25.019899	119.622123
	8.692720	25.310286	70.871974	24.701224	120.883483
	9.012885	27.858870	71.029978	28.684661	127.573508
	8.618835	26.266004	71.029978	28.206648	125.502630
	8.840489	25.469572	74.348051	25.497911	125.315534
	8.643463	26.425291	70.081957	26.135261	122.642509
	8.224785	25.469572	71.187981	25.816586	122.474139
	8.594207	27.221723	72.926020	28.047311	128.195054
	8.347926	26.266004	71.661992	27.091286	125.019282
	8.791232	27.062437	75.612079	26.931949	129.606464
	8.027760	28.336729	70.713971	26.613274	125.663973
	8.766604	26.106718	71.187981	28.206648	125.501348
	7.978504	25.150999	70.555967	27.250623	122.957590
	9.037514	28.814589	70.397964	24.701224	123.913775
	8.298670	26.584578	73.874041	26.453936	126.912554
	9.136026	25.310286	69.765950	26.294599	121.370834
	8.421810	26.584578	72.294006	27.091286	125.969869
	8.815860	25.947432	71.503988	26.294599	123.746018
	8.766604	24.673140	72.294006	25.816586	122.783731
	9.012885	24.354567	71.029978	26.613274	121.997818
	8.668092	24.832426	68.817928	26.931949	120.582303
	9.037514	26.425291	71.503988	27.091286	125.020565
	8.668092	26.584578	72.136002	25.497911	124.218491
	8.939001	26.903150	72.294006	27.091286	126.288442
	8.939001	27.858870	70.713971	26.772611	125.345451
	8.717348	27.540297	71.345985	27.569299	126.455579
	8.988257	25.947432	71.345985	26.772611	124.066027
	8.150901	28.496015	74.190048	28.843999	131.530062
	8.791232	28.018156	72.768016	26.931949	127.718120
	8.274041	27.381010	73.558034	29.640686	130.579730
	8.865117	26.425291	69.607946	28.365986	124.399223
	8.323298	26.266004	71.977998	25.975924	124.219926
	9.012885	30.566740	73.084023	27.409961	131.060724
	8.495695	26.743864	71.187981	26.613274	124.545119
	9.185282	24.035993	72.926020	25.338573	122.300587
	8.594207	24.673140	69.449943	26.931949	121.055031
	9.160654	24.832426	70.081957	24.860561	119.774944
	8.643463	27.540297	72.452009	26.453936	126.446242
	8.741976	27.062437	71.977998	28.206648	127.247084
	8.544951	26.266004	74.980065	29.003336	130.249405
	8.717348	27.858870	70.081957	26.453936	124.394762
	8.791232	26.903150	72.452009	26.135261	125.490420
	8.200157	26.266004	71.819995	26.931949	125.017948
	8.791232	28.655302	72.136002	27.409961	128.201265
	8.298670	27.221723	74.190048	27.409961	128.821732
	8.815860	28.336729	72.136002	28.843999	129.316730
	8.618835	25.310286	71.029978	24.541886	120.882149
	8.988257	27.540297	72.768016	29.640686	129.948999
	8.446438	25.150999	70.713971	27.887974	123.752943
	9.382307	26.743864	72.294006	25.975924	125.013793
	8.618835	24.673140	68.975932	24.541886	118.190958
	9.160654	29.133161	71.819995	26.135261	127.088418
	8.692720	25.628858	71.029978	26.294599	122.953435
	8.815860	25.469572	70.871974	26.294599	122.636145
	8.544951	28.177443	71.345985	26.772611	126.296038
	8.569579	26.425291	70.871974	25.497911	122.795176
	8.741976	26.425291	73.084023	30.437373	129.946687
	8.643463	25.310286	72.136002	27.728636	125.174924
	8.717348	25.788145	71.819995	24.860561	122.468701
	8.274041	26.425291	71.029978	27.091286	124.546555
	8.692720	26.266004	71.187981	26.294599	123.748584
	8.224785	28.814589	74.032044	29.481348	132.327981
	8.791232	27.699583	71.661992	26.453936	125.815511
	8.274041	27.381010	72.610012	27.091286	127.082309
	8.840489	25.788145	70.871974	25.338573	121.998693
	8.471067	26.266004	70.397964	28.365986	125.029954
	8.766604	26.584578	72.136002	29.003336	127.723916
	8.421810	26.266004	71.819995	26.294599	124.380598
	8.815860	27.221723	71.977998	27.250623	126.450345
	8.717348	26.584578	72.610012	26.294599	125.489189
	9.111398	27.699583	68.501922	25.019899	121.221403
	8.668092	27.062437	72.768016	27.250623	127.081077
	8.988257	25.628858	71.819995	26.453936	123.902790
	8.889745	24.673140	71.345985	26.135261	122.154385
	8.766604	26.425291	74.506055	25.816586	126.747932
	8.840489	25.469572	69.449943	27.569299	122.488813
	8.495695	26.743864	72.452009	27.409961	126.605834
	9.086770	27.221723	72.452009	26.135261	125.808993
	8.569579	27.062437	71.029978	26.135261	124.227676
	8.914373	26.743864	72.610012	26.931949	126.285825
	8.274041	28.655302	72.768016	29.481348	130.904666
	9.209910	24.195280	68.185914	22.311161	114.692355
	8.594207	29.133161	74.348051	28.206648	131.687861
	9.283795	22.602415	68.817928	23.107848	114.528192
	8.668092	25.310286	73.242027	28.843999	127.396311
	9.234539	25.469572	69.133936	25.497911	120.101419
	8.692720	26.743864	72.294006	25.816586	124.854456
	9.012885	26.106718	71.819995	26.453936	124.380649
	8.963629	26.903150	71.977998	27.091286	125.972435
	9.062142	28.814589	72.610012	27.409961	128.834562
	8.889745	26.903150	71.187981	27.250623	125.341755
	8.741976	27.381010	73.084023	26.772611	127.237644
	9.062142	25.788145	69.291939	25.019899	120.099983
	8.446438	27.221723	71.503988	29.481348	128.207060
	9.136026	25.788145	71.029978	26.613274	123.431396
	8.003132	24.673140	71.187981	25.816586	121.677707
	9.062142	24.513853	69.923953	24.701224	119.139030
	8.520323	24.832426	71.029978	26.135261	121.997664
	9.136026	25.628858	71.977998	25.657249	123.264105
	8.692720	27.062437	70.397964	26.931949	124.392349
	9.456192	27.858870	71.503988	25.019899	124.382756
	8.741976	26.425291	71.345985	28.525324	126.296599
	9.259167	25.788145	71.819995	28.843999	126.452139
	8.717348	27.062437	71.819995	26.135261	125.017693
	8.741976	27.221723	72.926020	26.613274	126.761017
	9.111398	26.266004	71.029978	26.294599	123.590581
	8.717348	26.743864	71.819995	26.613274	125.177133
	8.865117	26.584578	71.819995	27.091286	125.495858
	8.569579	30.248167	72.136002	27.569299	129.953468
	8.668092	26.584578	74.664058	26.294599	127.543234
	8.471067	26.743864	71.503988	26.931949	125.179801
	8.963629	24.832426	71.661992	27.409961	123.904379
	8.274041	25.628858	70.871974	26.772611	123.273443
	8.717348	25.469572	71.819995	26.613274	123.902841
	8.298670	25.310286	73.084023	26.294599	124.688907
	9.062142	27.062437	71.345985	26.931949	125.340370
	8.544951	25.310286	72.136002	26.931949	124.378236
	9.111398	26.743864	72.136002	27.091286	125.971152
	8.815860	26.266004	72.452009	24.541886	123.259900
	9.111398	28.336729	71.345985	27.569299	127.252012
	8.865117	26.425291	71.029978	28.206648	125.661917
	9.209910	25.150999	71.345985	26.135261	122.632244
	8.939001	25.788145	70.081957	23.426524	119.296625
	9.062142	26.584578	71.977998	26.294599	124.857175
	9.111398	25.469572	70.397964	25.975924	121.843459
	8.766604	27.062437	72.768016	27.409961	127.240414
	8.988257	27.699583	72.610012	26.931949	127.241544
	8.323298	25.788145	71.503988	24.541886	121.834019
	9.111398	27.699583	73.716037	29.481348	130.896969
	8.520323	28.018156	72.294006	30.118699	130.430860
	9.062142	30.248167	71.661992	27.091286	129.001445
	8.397182	26.743864	72.136002	25.816586	124.696452
	9.333051	24.354567	70.871974	24.701224	119.927764
	8.815860	26.584578	72.452009	27.569299	126.605885
	9.382307	26.584578	74.506055	26.931949	128.022581
	9.037514	26.903150	69.607946	26.453936	122.965032
	9.456192	26.425291	71.977998	26.294599	124.697888
	9.111398	23.876707	70.239960	23.585861	117.702528
	9.185282	27.221723	70.555967	26.453936	124.231627
	8.840489	26.106718	74.032044	27.250623	127.389386
	9.431564	24.673140	69.133936	25.179236	118.986311
	8.865117	27.540297	72.768016	25.975924	126.284236
	8.988257	28.496015	73.716037	28.047311	130.259364
	9.012885	25.469572	72.294006	27.091286	124.854864
	8.618835	25.310286	71.029978	26.135261	122.475524
	9.185282	24.991712	69.607946	23.745199	118.344857
	8.150901	25.150999	70.239960	24.541886	119.932845
	9.012885	26.903150	72.610012	28.843999	128.357161
	8.421810	26.584578	72.926020	26.772611	126.283208
	9.209910	28.336729	70.871974	25.497911	124.706614
	8.791232	26.425291	70.871974	25.497911	122.795176
	9.431564	24.195280	70.713971	25.179236	120.088487
	9.062142	25.310286	71.345985	25.975924	122.632193
	9.160654	24.991712	71.345985	24.701224	121.038920
	8.963629	26.584578	71.977998	26.931949	125.494525
	9.406936	22.920988	69.765950	25.338573	118.025511
	9.012885	27.540297	73.558034	29.800024	130.898354
	8.988257	25.628858	71.187981	26.294599	123.111438
	9.136026	26.584578	73.084023	25.497911	125.166511
	8.692720	25.469572	70.713971	25.497911	121.681454
	9.037514	28.018156	71.503988	26.135261	125.657405
	8.372554	26.743864	72.452009	26.772611	125.968484
	9.185282	27.062437	73.242027	27.250623	127.555087
	8.471067	27.062437	73.242027	27.728636	128.033100
	9.333051	26.106718	72.136002	24.860561	123.103281
	8.840489	28.655302	71.661992	28.047311	128.364605
	9.037514	28.018156	73.558034	29.800024	131.376213
	9.037514	26.903150	72.768016	28.047311	127.718478
	9.628589	27.540297	71.819995	25.338573	124.698865
	8.815860	25.469572	73.084023	25.179236	123.732831
	9.012885	26.106718	70.871974	27.091286	124.069978
	9.012885	24.195280	71.661992	25.975924	121.833195
	8.815860	28.018156	73.558034	27.728636	129.304825
	8.988257	26.266004	72.768016	26.294599	125.328619
	8.668092	26.266004	71.503988	27.409961	125.179953
	8.815860	29.292448	73.716037	29.959361	132.967846
	8.594207	28.018156	72.452009	26.453936	126.924101
	9.234539	26.266004	72.136002	25.657249	124.059255
	8.372554	26.425291	73.242027	26.613274	126.280591
	9.382307	26.903150	70.081957	25.657249	122.642356
	8.569579	26.584578	71.503988	25.816586	123.905152
	9.333051	25.469572	71.819995	25.816586	123.106153
	8.939001	25.788145	71.503988	24.223211	121.515344
	9.554704	25.947432	72.452009	27.569299	125.968739
	8.840489	26.266004	71.187981	27.887974	125.341959
	9.136026	26.743864	72.294006	25.816586	124.854456
	9.234539	27.062437	72.926020	26.931949	126.920405
	9.062142	25.628858	70.555967	25.497911	121.682737
	9.086770	28.018156	74.822062	27.569299	130.409516
	9.111398	27.062437	71.345985	27.091286	125.499707
	9.136026	30.088881	73.874041	26.613274	130.576195
	9.037514	29.451735	74.506055	27.887974	131.845763
	9.037514	26.584578	73.558034	28.843999	128.986610
	8.495695	26.425291	72.926020	28.843999	128.195309
	9.160654	27.699583	72.926020	27.728636	128.354239
	8.520323	28.973875	71.819995	26.453936	127.247806
	9.136026	26.425291	72.294006	25.497911	124.217208
	8.397182	24.035993	70.397964	24.382548	118.816506
	9.185282	28.496015	71.661992	26.931949	127.089956
	8.741976	29.929594	74.506055	29.640686	134.076335
	9.283795	25.469572	71.187981	25.019899	121.677452
	8.766604	28.973875	74.348051	28.843999	132.165924
	9.456192	26.425291	71.977998	27.091286	125.494575
	8.988257	26.266004	72.452009	26.453936	125.171949
	9.308423	26.425291	70.555967	25.179236	122.160494
	8.865117	27.699583	72.452009	26.772611	126.924203
	9.333051	25.788145	71.029978	25.179236	121.997359
	8.791232	28.177443	73.558034	28.047311	129.782787
	9.259167	26.106718	73.242027	25.816586	125.165331
	9.234539	30.248167	71.187981	26.294599	127.730747
	9.283795	26.584578	71.819995	27.569299	125.973871
	8.741976	27.381010	73.874041	29.003336	130.258387
	8.963629	26.266004	73.242027	26.931949	126.439980
	8.889745	26.903150	73.716037	25.657249	126.276436
	8.889745	25.947432	70.555967	26.453936	122.957335
	8.889745	26.266004	72.136002	26.453936	124.855942
	9.062142	26.584578	72.452009	26.613274	125.649860
	8.643463	29.611021	73.874041	28.365986	131.851047
	8.594207	26.106718	72.294006	25.019899	123.420622
	9.185282	24.195280	69.133936	25.179236	118.508452
	8.471067	27.062437	72.136002	28.684661	127.883100
	8.963629	27.381010	73.242027	28.047311	128.670348
	8.421810	26.106718	72.294006	25.179236	123.579960
	9.012885	27.062437	72.768016	26.294599	126.125052
	8.668092	27.381010	72.926020	26.613274	126.920303
	9.283795	31.203886	72.136002	27.887974	131.227862
	8.815860	27.381010	72.768016	26.931949	127.080975
	9.283795	26.106718	72.452009	26.453936	125.012663
	8.766604	26.106718	72.136002	25.019899	123.262619
	9.456192	27.381010	72.452009	29.162674	128.995693
	8.717348	25.469572	72.136002	27.728636	125.334210
	9.259167	26.425291	73.874041	26.772611	127.071943
	8.963629	28.496015	72.768016	26.613274	127.877305
	9.406936	22.920988	69.449943	23.267186	115.638117
	9.037514	28.336729	72.926020	27.887974	129.150722
	9.382307	27.381010	72.452009	26.772611	126.605630
	8.914373	28.177443	72.768016	25.975924	126.921382
	9.111398	27.381010	73.084023	27.569299	128.034332
	8.963629	25.788145	73.084023	27.887974	126.760142
	9.086770	27.540297	70.555967	27.091286	125.187550
	8.815860	27.221723	72.610012	25.816586	125.648322
	9.012885	26.106718	72.294006	26.453936	124.854660
	9.111398	26.743864	73.084023	27.091286	126.919173
	8.668092	26.903150	73.242027	26.135261	126.280438
	9.136026	26.425291	70.555967	26.294599	123.275857
	8.791232	28.336729	73.242027	27.091286	128.670042
	9.382307	28.018156	73.558034	28.365986	129.942175
	8.569579	30.248167	73.242027	29.322011	132.812205
	9.234539	24.991712	71.977998	23.904536	120.874247
	8.668092	26.106718	70.713971	24.860561	121.681250
	9.234539	26.106718	70.871974	24.541886	121.520578
	8.717348	27.540297	75.454076	26.931949	129.926321
	9.308423	25.469572	71.819995	26.294599	123.584166
	8.766604	25.310286	73.558034	26.294599	125.162918
	9.357679	26.584578	70.397964	25.019899	122.002440
	8.668092	28.655302	73.242027	26.931949	128.829277
	9.333051	26.584578	72.452009	28.206648	127.243235
	8.939001	26.743864	73.084023	27.887974	127.715861
	9.431564	28.018156	73.400030	25.816586	127.234772
	9.086770	27.858870	72.768016	26.772611	127.399496
	9.308423	26.266004	72.136002	25.975924	124.377930
	9.012885	27.062437	72.926020	26.772611	126.761068
	9.259167	27.062437	72.610012	26.294599	125.967048
	8.865117	27.221723	72.294006	25.497911	125.013640
	8.668092	27.221723	71.345985	25.019899	123.587606
	9.012885	25.947432	71.187981	27.728636	124.864048
	8.717348	30.248167	73.242027	28.525324	132.015517
	8.815860	28.018156	73.242027	26.135261	127.395444
	8.791232	26.106718	73.242027	25.816586	125.165331
	8.865117	28.177443	71.819995	27.250623	127.248061
	8.471067	27.381010	72.610012	26.931949	126.922971
	9.382307	24.035993	71.029978	24.541886	119.607857
	8.643463	26.903150	72.926020	26.453936	126.283106
	9.333051	26.743864	73.084023	25.975924	125.803810
	8.594207	25.788145	70.713971	28.047311	124.549427
	9.505448	27.221723	72.926020	26.772611	126.920354
	8.471067	30.088881	75.928086	28.206648	134.223615
	9.406936	29.611021	73.242027	27.250623	130.103671
	8.741976	26.106718	73.242027	25.816586	125.165331
	9.653217	25.947432	71.345985	26.294599	123.588015
	9.086770	26.106718	71.029978	24.701224	121.837919
	9.431564	26.425291	72.610012	25.179236	124.214540
	8.914373	25.788145	71.345985	25.975924	123.110053
	9.160654	27.540297	74.664058	29.322011	131.526366
	9.086770	27.540297	71.503988	27.250623	126.294908
	9.234539	29.611021	72.452009	25.657249	127.720279
	8.988257	27.062437	72.926020	25.975924	125.964380
	9.086770	27.381010	74.032044	27.569299	128.982352
	8.988257	27.221723	74.822062	27.091286	129.135071
	8.889745	25.469572	70.397964	24.860561	120.728097
	9.037514	26.106718	72.136002	26.294599	124.537319
	8.766604	28.973875	75.138069	27.250623	131.362567
	9.160654	28.336729	73.874041	29.003336	131.214106
	8.840489	27.858870	72.926020	28.365986	129.150875
	9.185282	27.540297	73.558034	26.613274	127.711604
	8.668092	24.832426	70.555967	23.904536	119.292929
	9.111398	27.858870	72.136002	25.179236	125.174108
	8.544951	25.788145	71.819995	25.338573	122.946714
	9.357679	26.903150	74.664058	26.772611	128.339820
	8.569579	26.584578	71.819995	26.135261	124.539834
	9.185282	26.425291	71.661992	23.904536	121.991819
	8.618835	26.743864	73.084023	28.525324	128.353211
	9.357679	25.150999	71.029978	26.453936	122.634912
	8.766604	26.584578	73.242027	25.179236	125.005840
	9.431564	29.292448	71.503988	25.657249	126.453685
	9.111398	26.584578	72.452009	25.657249	124.693835
	9.653217	27.540297	73.400030	26.931949	127.872275
	9.111398	29.929594	73.242027	27.250623	130.422244
	9.382307	25.150999	72.294006	24.223211	121.668216
	8.963629	25.310286	71.187981	24.223211	120.721478
	9.530076	23.876707	71.345985	27.091286	122.313977
	8.865117	27.062437	73.400030	27.887974	128.350440
	8.963629	26.425291	71.819995	25.179236	123.424522
	8.766604	28.336729	75.612079	27.250623	131.199432
	9.062142	28.496015	72.768016	27.409961	128.673992
	9.111398	28.496015	72.926020	26.772611	128.194646
	9.012885	27.699583	72.926020	26.772611	127.398214
	9.160654	27.381010	72.294006	25.975924	125.650939
	8.791232	28.655302	73.874041	25.019899	127.549241
	9.333051	27.540297	71.819995	28.047311	127.407603
	8.668092	26.425291	72.610012	28.047311	127.082615
	9.628589	26.425291	72.452009	25.338573	124.215874
	8.544951	26.903150	72.452009	25.497911	124.853071
	9.259167	28.973875	74.190048	25.975924	129.139846
	8.569579	27.540297	72.136002	26.772611	126.448909
	9.480820	26.106718	71.819995	25.975924	123.902636
	8.668092	26.425291	71.345985	25.497911	123.269187
	9.382307	27.381010	73.242027	25.497911	126.120948
	8.914373	25.469572	73.242027	25.816586	124.528185
	9.308423	26.584578	71.977998	28.525324	127.087900
	8.914373	27.062437	72.610012	25.975924	125.648373
	9.406936	27.540297	73.400030	26.294599	127.234925
	9.283795	25.469572	71.661992	24.860561	121.992125
	9.333051	27.221723	73.874041	26.294599	127.390363
	9.357679	28.655302	71.819995	26.453936	126.929233
	9.283795	27.381010	72.768016	26.613274	126.762300
	9.136026	27.062437	73.716037	25.657249	126.435722
	8.939001	28.814589	72.768016	29.162674	130.745278
	8.889745	27.221723	74.348051	27.728636	129.298410
	9.062142	27.381010	73.084023	26.135261	126.600294
	9.333051	25.628858	71.661992	24.701224	121.992074
	8.865117	27.540297	73.558034	26.931949	128.030279
	9.012885	26.266004	71.661992	25.497911	123.425907
	8.865117	29.292448	75.928086	28.525324	133.745858
	8.741976	28.177443	73.716037	26.294599	128.188078
	8.594207	29.770307	73.084023	25.338573	128.192904
	9.333051	27.699583	73.242027	28.843999	129.785608
	8.692720	26.425291	72.452009	28.525324	127.402624
	9.259167	27.221723	74.032044	25.497911	126.751678
	8.988257	27.381010	72.452009	25.816586	125.649605
	9.530076	25.310286	72.452009	25.657249	123.419543
	8.889745	27.062437	73.242027	26.453936	126.758400
	9.628589	29.133161	74.506055	28.206648	131.845865
	9.234539	28.814589	74.348051	26.135261	129.297900
	9.406936	26.584578	71.187981	24.382548	122.155107
	9.283795	26.584578	73.242027	26.294599	126.121203
	9.333051	28.336729	74.032044	29.162674	131.531447
	9.209910	28.018156	73.874041	27.569299	129.461495
	9.283795	28.496015	75.612079	27.250623	131.358718
	9.136026	27.699583	72.926020	26.294599	126.920201
	9.283795	26.425291	71.819995	25.019899	123.265185
	9.012885	28.973875	74.664058	27.887974	131.525907
	8.939001	26.425291	72.294006	25.657249	124.376545
	9.136026	27.062437	74.822062	24.860561	126.745060
	8.471067	31.522459	73.242027	28.206648	132.971134
	9.136026	27.699583	72.926020	28.206648	128.832251
	8.397182	27.381010	74.190048	26.613274	128.184331
	9.456192	27.062437	72.768016	25.657249	125.487702
	8.668092	28.655302	75.138069	27.091286	130.884657
	9.406936	24.832426	70.397964	24.860561	120.090951
	8.741976	26.903150	73.558034	27.250623	127.711808
	9.456192	27.699583	73.400030	26.453936	127.553549
	8.963629	27.062437	72.136002	24.223211	123.421650
	9.554704	26.106718	72.926020	26.613274	125.646011
	9.037514	27.381010	72.610012	28.525324	128.516346
	9.283795	28.018156	72.136002	24.701224	124.855381
	8.865117	26.903150	72.768016	25.338573	125.009740
	9.554704	26.266004	71.819995	26.135261	124.221260
	9.111398	29.133161	75.770083	26.772611	131.675855
	9.431564	26.903150	71.661992	25.975924	124.541066
	8.939001	27.540297	73.874041	26.294599	127.708936
	9.234539	24.354567	70.871974	22.470499	117.697039
	9.185282	27.540297	71.819995	28.365986	127.726278
	9.283795	28.177443	75.138069	29.003336	132.318847
	8.791232	27.540297	72.136002	25.816586	125.492885
	9.086770	25.628858	71.661992	23.904536	121.195386
	9.062142	28.973875	73.242027	26.135261	128.351162
	9.062142	27.699583	72.452009	26.453936	126.605528
	9.012885	26.266004	74.348051	26.453936	127.067991
	8.914373	26.584578	71.819995	26.135261	124.539834
	9.012885	28.018156	73.558034	25.657249	127.233438
	8.741976	29.611021	73.716037	25.975924	129.302981
	9.062142	27.381010	73.400030	28.047311	128.828351
	8.471067	26.903150	74.664058	27.569299	129.136507
	9.283795	27.699583	70.871974	24.701224	123.272781
	8.643463	27.381010	73.084023	25.179236	125.644269
	8.889745	26.584578	73.242027	26.135261	125.961865
	8.397182	27.858870	73.242027	27.409961	128.510857
	9.382307	28.018156	74.980065	26.772611	129.770832
	8.471067	25.788145	70.239960	24.382548	120.410654
	9.062142	27.540297	72.926020	25.497911	125.964227
	8.618835	27.381010	73.400030	28.206648	128.987688
	9.062142	30.885313	73.558034	27.728636	132.171983
	8.544951	26.903150	74.032044	24.860561	125.795755
	9.653217	25.628858	70.713971	24.223211	120.566040
	8.618835	28.655302	72.610012	25.975924	127.241238
	9.480820	26.584578	72.452009	25.019899	124.056485
	8.544951	28.973875	74.822062	28.525324	132.321260
	9.234539	24.991712	73.716037	24.063874	122.771623
	8.791232	25.788145	70.713971	25.179236	121.681352
	9.333051	25.788145	71.977998	27.409961	125.176104
	8.692720	26.903150	73.242027	26.453936	126.599113
	9.406936	25.469572	70.239960	23.426524	119.136056
	8.791232	29.770307	74.822062	26.294599	130.886967
	9.357679	26.584578	71.187981	25.179236	122.951795
	8.618835	26.425291	72.452009	26.294599	125.171899
	9.456192	29.133161	73.558034	26.931949	129.623143
	8.717348	26.584578	71.029978	23.585861	121.200416
	9.554704	25.310286	72.926020	26.613274	124.849579
	8.988257	27.062437	72.452009	28.206648	127.721095
	9.259167	27.381010	73.400030	25.338573	126.119613
	9.086770	25.947432	72.136002	23.585861	121.669295
	9.308423	27.062437	72.136002	25.338573	124.537013
	8.988257	27.381010	74.664058	26.613274	128.658342
	9.480820	29.929594	71.029978	25.657249	126.616820
	8.840489	27.062437	72.926020	25.657249	125.645705
	9.259167	26.266004	73.400030	25.816586	125.482620
	8.495695	26.425291	73.242027	25.338573	125.005891
	9.702473	28.177443	74.980065	28.684661	131.842168
	9.209910	28.018156	74.506055	28.206648	130.730859
	9.456192	26.903150	73.084023	25.179236	125.166410
	8.914373	24.991712	70.871974	23.267186	119.130873
	9.382307	31.363172	74.822062	29.162674	135.347907
	8.815860	26.584578	74.032044	25.975924	126.592545
	9.136026	28.177443	73.874041	27.409961	129.461444
	8.717348	29.451735	74.190048	25.816586	129.458368
	8.569579	27.221723	73.242027	27.250623	127.714374
	8.865117	28.336729	74.032044	29.959361	132.328134
	8.397182	29.451735	75.296072	27.250623	131.998430
	8.889745	27.858870	73.400030	25.657249	126.916148
	8.520323	25.788145	73.084023	25.338573	124.210741
	8.988257	26.903150	73.084023	25.975924	125.963097
	8.397182	27.858870	72.136002	26.613274	126.608145
	9.086770	28.814589	74.348051	26.772611	129.935250
	8.495695	25.628858	71.661992	23.107848	120.398699
	9.111398	26.266004	72.768016	26.294599	125.328619
	8.594207	28.655302	73.716037	29.322011	131.693350
	9.160654	27.062437	71.503988	25.657249	124.223674
	9.037514	27.062437	74.980065	25.657249	127.699750
	9.357679	28.336729	74.032044	26.931949	129.300722
	8.889745	26.425291	71.977998	24.860561	123.263851
	9.160654	27.540297	72.294006	25.338573	125.172876
	8.988257	27.381010	72.768016	26.294599	126.443625
	8.988257	26.584578	74.032044	25.657249	126.273870
	8.840489	28.814589	72.768016	25.338573	126.921178
	8.963629	27.381010	72.768016	26.931949	127.080975
	8.791232	27.221723	73.558034	28.206648	128.986405
	8.717348	26.903150	72.768016	26.294599	125.965765
	9.283795	28.496015	75.454076	26.135261	130.085352
	8.865117	28.336729	72.610012	26.294599	127.241340
	8.988257	27.540297	73.084023	26.135261	126.759581
	8.421810	27.221723	72.452009	26.294599	125.968331
	9.136026	30.088881	72.294006	26.135261	128.518147
	8.471067	27.381010	74.032044	25.019899	126.432952
	9.234539	27.858870	73.558034	29.003336	130.420239
	8.347926	27.699583	72.136002	26.135261	125.970846
	9.333051	25.947432	71.029978	23.585861	120.563270
	8.520323	26.106718	71.819995	25.338573	123.265287
	9.160654	26.266004	74.506055	26.135261	126.907320
	8.692720	26.743864	71.819995	25.816586	124.380445
	9.160654	25.788145	71.503988	24.701224	121.993357
	8.692720	26.903150	72.768016	25.338573	125.009740
	9.259167	24.354567	69.449943	22.789174	116.593683
	8.939001	28.336729	74.506055	28.047311	130.890095
	9.874870	28.973875	73.874041	27.569299	130.417214
	9.406936	25.150999	72.294006	23.904536	121.349541
	8.791232	30.088881	74.032044	28.047311	132.168236
	9.086770	27.858870	74.348051	26.135261	128.342181
	9.259167	26.106718	72.768016	25.816586	124.691320
	9.037514	26.584578	72.452009	25.657249	124.693835
	8.988257	28.177443	74.822062	25.657249	128.656753
	9.111398	25.628858	70.397964	24.701224	120.728046
	8.791232	27.221723	73.716037	28.206648	129.144409
	9.086770	27.381010	74.032044	26.294599	127.707653
	8.471067	29.133161	71.503988	23.904536	124.541685
	9.234539	27.062437	73.400030	25.338573	125.801040
	8.520323	25.469572	72.294006	25.338573	123.102151
	9.406936	26.425291	72.926020	27.250623	126.601934
	8.618835	30.248167	77.192114	29.003336	136.443617
	9.333051	25.469572	71.029978	24.860561	121.360111
	9.111398	26.743864	72.294006	24.382548	123.420418
	9.283795	26.106718	72.294006	26.294599	124.695322
	8.988257	28.655302	71.503988	27.250623	127.409914
	9.456192	26.106718	72.926020	24.860561	123.893299
	9.185282	26.425291	72.136002	24.860561	123.421854
	9.530076	25.628858	71.819995	24.541886	121.990740
	9.382307	26.266004	71.661992	24.860561	122.788557
	9.308423	27.062437	71.661992	26.453936	125.178365
	8.939001	26.743864	74.822062	25.975924	127.541849
	9.554704	27.699583	72.926020	25.338573	125.964176
	9.209910	27.858870	72.926020	27.091286	127.876175
	9.283795	27.062437	72.452009	26.931949	126.446395
	9.160654	24.354567	69.607946	23.585861	117.548373
	9.086770	28.973875	74.190048	24.223211	127.387134
	9.111398	27.062437	71.977998	25.657249	124.697684
	9.012885	25.788145	73.558034	26.135261	125.481440
	9.283795	24.991712	72.294006	25.497911	122.783629
	8.446438	26.425291	72.926020	25.019899	124.371209
	9.062142	28.018156	76.718104	27.409961	132.146221
	8.643463	27.062437	73.400030	28.206648	128.669116
	9.431564	27.381010	73.716037	26.453936	127.550983
	8.520323	28.018156	72.926020	25.657249	126.601424
	8.988257	29.292448	75.770083	27.250623	132.313154
	8.692720	24.354567	71.661992	22.948511	118.965069
	9.456192	27.699583	71.819995	25.338573	124.858152
	8.717348	28.973875	74.980065	28.047311	132.001251
	9.259167	26.425291	73.084023	25.019899	124.529212
	8.889745	27.858870	76.244093	26.294599	130.397561
	9.357679	27.062437	71.503988	27.409961	125.976386
	9.136026	24.991712	71.819995	24.860561	121.672269
	9.530076	26.106718	72.768016	24.382548	123.257283
	8.988257	26.425291	72.294006	23.585861	122.305158
	9.209910	29.929594	72.452009	25.179236	127.560839
	8.914373	28.814589	75.928086	27.409961	132.152636
	8.865117	26.584578	72.768016	26.135261	125.487855
	8.815860	24.354567	72.768016	25.338573	122.461156
	9.012885	26.425291	72.294006	24.860561	123.579858
	8.840489	26.266004	70.713971	24.701224	121.681198
	8.865117	27.221723	74.506055	28.047311	129.775089
	8.939001	26.425291	71.503988	25.338573	123.267853
	8.717348	26.903150	71.819995	23.585861	122.309007
	9.062142	26.743864	72.926020	25.338573	125.008457
	8.372554	26.903150	73.242027	26.294599	126.439776
	9.234539	28.814589	74.032044	26.294599	129.141231
	8.791232	26.743864	72.136002	25.338573	124.218440
	9.677845	24.832426	71.819995	23.107848	119.760270
	8.766604	26.584578	72.452009	29.800024	128.836610
	9.086770	27.062437	75.296072	25.816586	128.175095
	8.963629	25.469572	71.029978	23.585861	120.085410
	9.012885	25.788145	71.819995	24.223211	121.831351
	8.865117	30.248167	76.244093	28.843999	135.336258
	8.914373	25.469572	70.555967	23.904536	119.930075
	9.136026	24.832426	73.242027	23.745199	121.819651
	8.963629	27.062437	71.819995	25.497911	124.380343
	8.865117	30.566740	73.558034	25.975924	130.100697
	8.865117	28.336729	73.874041	28.525324	130.736093
	8.815860	26.106718	73.084023	26.772611	125.963352
	8.791232	25.469572	75.138069	27.091286	127.698926
	8.766604	26.425291	72.452009	24.860561	123.737861
	8.544951	26.584578	72.294006	25.179236	124.057819
	8.840489	27.699583	74.348051	26.772611	128.820245
	8.397182	26.903150	73.084023	25.497911	125.485084
	9.037514	28.496015	72.294006	25.816586	126.606607
	8.323298	25.310286	72.294006	23.426524	121.030815
	9.209910	27.221723	73.084023	26.931949	127.237695
	8.347926	26.266004	73.400030	28.206648	127.872683
	9.111398	27.699583	73.558034	27.091286	128.348903
	8.544951	28.814589	73.716037	26.931949	129.462574
	9.259167	29.292448	76.402096	27.409961	133.104506
	8.643463	26.106718	70.397964	25.019899	121.524580
	9.136026	28.336729	72.136002	25.019899	125.492630
	8.544951	27.381010	73.400030	26.294599	127.075639
	9.209910	28.973875	74.190048	27.569299	130.733221
	8.791232	25.469572	71.503988	23.267186	120.240746
	9.259167	25.628858	71.345985	26.135261	123.110104
	8.914373	24.354567	72.452009	24.701224	121.507799
	9.111398	27.062437	74.980065	26.931949	128.974450
	8.889745	27.221723	74.664058	25.497911	127.383693
	8.766604	25.628858	72.452009	26.453936	124.534804
	8.840489	28.655302	74.506055	27.728636	130.889993
	9.160654	27.062437	73.400030	25.657249	126.119716
	8.840489	28.496015	73.084023	25.019899	126.599937
	8.988257	26.743864	74.348051	26.772611	127.864526
	8.914373	28.973875	74.980065	30.118699	134.072638
	8.791232	27.858870	72.610012	25.338573	125.807455
	8.988257	26.903150	73.242027	25.019899	125.165076
	8.594207	28.018156	74.348051	27.409961	129.776168
	8.914373	27.381010	76.560100	29.481348	133.422459
	8.421810	27.062437	70.713971	25.657249	123.433656
	9.160654	27.381010	74.348051	26.453936	128.182997
	8.372554	29.133161	74.980065	26.772611	130.885838
	9.259167	27.221723	73.084023	27.728636	128.034382
	8.372554	29.292448	76.560100	26.931949	132.784497
	9.037514	26.743864	70.555967	24.860561	122.160392
	8.741976	28.177443	75.138069	26.613274	129.928785
	8.963629	27.062437	73.716037	25.975924	126.754398
	8.766604	27.699583	73.558034	26.613274	127.870890
	9.333051	25.310286	73.558034	25.179236	124.047555
	8.618835	25.628858	71.503988	25.179236	122.312083
	9.357679	26.584578	72.452009	25.019899	124.056485
	8.766604	29.133161	74.506055	26.453936	130.093152
	9.530076	27.062437	72.926020	27.887974	127.876430
	9.037514	26.903150	72.926020	27.091286	126.920456
	9.333051	28.336729	74.348051	25.975924	128.660704
	8.963629	28.177443	73.400030	26.135261	127.712733
	8.717348	27.221723	73.874041	26.453936	127.549700
	8.618835	26.743864	73.242027	26.294599	126.280489
	8.791232	27.858870	73.242027	26.613274	127.714170
	8.939001	28.336729	73.874041	25.975924	128.186693
	8.569579	27.540297	73.084023	26.135261	126.759581
	8.791232	28.814589	75.454076	29.640686	133.909350
	8.544951	31.203886	74.348051	28.684661	134.236598
	9.012885	27.540297	72.926020	25.179236	125.645552
	8.544951	25.947432	73.084023	25.975924	125.007378
	9.234539	25.628858	73.084023	26.135261	124.848143
	8.717348	26.106718	72.294006	24.860561	123.261285
	9.136026	26.266004	73.558034	26.772611	126.596649
	8.618835	24.991712	74.822062	24.541886	124.355660
	9.308423	27.381010	71.977998	26.772611	126.131619
	8.766604	27.540297	72.926020	27.409961	127.876277
	9.480820	26.266004	72.610012	25.657249	124.533265
	8.643463	30.885313	77.508121	28.525324	136.918757
	9.209910	25.788145	72.768016	22.311161	120.867322
	8.865117	28.973875	73.716037	27.569299	130.259210
	9.456192	25.628858	72.294006	24.701224	122.624088
	8.741976	27.381010	73.400030	25.816586	126.597626
	9.431564	26.743864	72.294006	23.904536	122.942406
	9.382307	26.425291	76.086090	27.091286	129.602667
	9.357679	27.062437	71.819995	27.091286	125.973718
	9.185282	28.177443	74.664058	26.294599	129.136099
	8.914373	28.336729	74.032044	25.179236	127.548009
	8.963629	28.177443	73.874041	26.294599	128.346081
	8.791232	28.655302	77.824128	27.091286	133.570716
	9.086770	30.407453	72.294006	25.816586	128.518045
