LabVIEW Measurement	
Writer_Version	2
Reader_Version	2
Separator	Tab
Decimal_Separator	.
Multi_Headings	No
X_Columns	No
Time_Pref	Absolute
Operator	lvuser
Date	2021/05/25
Time	15:40:10.173487362
***End_of_Header***	
	
Channels	5					
Samples	2000	2000	2000	2000	2000	
Date	2021/05/25	2021/05/25	2021/05/25	2021/05/25	2021/05/25	
Time	15:40:10.1734874120585883856	15:40:10.173487362	15:40:10.173487362	15:40:10.173487362	15:40:10.173487362	
Y_Unit_Label	Volts	Volts	Volts	Volts	Volts	
X_Dimension	Time	Time	Time	Time	Time	
X0	0.0000000000000000E+0	0.0000000000000000E+0	0.0000000000000000E+0	0.0000000000000000E+0	0.0000000000000000E+0	
Delta_X	0.001000	0.001000	0.001000	0.001000	0.001000	
***End_of_Header***						
X_Value	cisnienieKomoraGorna	sila1	sila2	sila3	sila1 1	Comment
	-6.675234	-4.954149	37.059225	1.756624	33.861699	Masa: 0.00 [kg]\09Pozycja Y 5.00 [m]\09Pozycja Z 2.71 [m]\0A
	1.821471	-0.016268	42.905355	3.987349	46.876435
	2.067752	-2.564852	42.115337	3.828011	43.378496
	1.772215	-3.679858	40.219295	1.597286	38.136724
	1.919983	-2.883425	42.431344	3.509336	43.057255
	1.796843	-4.476290	41.641327	3.828011	40.993048
	1.599818	-4.317003	41.325320	3.031324	40.039640
	2.215521	-3.998431	43.379365	3.987349	43.368283
	1.747587	-3.679858	41.325320	2.393974	40.039436
	2.215521	-3.201998	40.693306	2.234636	39.725944
	1.772215	-3.520571	40.219295	1.756624	38.455348
	2.018496	-3.201998	41.957334	3.031324	41.786659
	1.402793	-4.635576	40.535302	1.437949	37.337674
	1.796843	-4.476290	40.219295	2.393974	38.136979
	1.107255	-3.042711	42.115337	5.580724	44.653349
	2.018496	-2.724139	42.905355	1.915961	42.097177
	1.427421	-4.317003	41.009313	4.306024	40.998333
	1.846099	-4.157717	39.271274	1.756624	36.870181
	1.328908	-3.839144	41.325320	1.437949	38.924124
	1.944612	-5.113436	40.061292	0.003911	34.951767
	1.649074	-2.405565	41.325320	3.668674	42.588428
	1.747587	-4.476290	40.851309	3.828011	40.203030
	1.624446	-4.476290	39.903288	2.075299	37.502297
	1.722958	-4.157717	41.483323	2.075299	39.400905
	1.673702	-4.157717	41.325320	2.234636	39.402239
	1.944612	-5.750582	39.745285	1.915961	35.910664
	1.624446	-3.520571	41.957334	3.031324	41.468086
	2.314034	-3.361285	41.167316	2.553311	40.359343
	1.969240	-2.246279	43.221362	6.218074	47.193156
	2.141637	-3.679858	40.693306	1.756624	38.770072
	1.575190	-2.724139	41.009313	4.306024	42.591198
	2.190893	-4.476290	40.219295	1.915961	37.658966
	1.427421	-0.812701	44.485390	4.943374	48.616063
	1.969240	-1.609133	43.221362	2.712649	44.324877
	1.304280	-3.520571	41.167316	2.553311	40.200056
	2.117009	-5.432009	40.693306	4.624699	39.885995
	1.969240	-3.361285	43.221362	4.465361	44.325438
	2.166265	-3.679858	41.641327	1.119274	39.080743
	1.649074	0.461591	42.431344	3.031324	45.924259
	2.215521	-3.361285	41.483323	2.553311	40.675350
	1.698330	0.939451	43.537369	4.624699	49.101518
	2.338662	-3.998431	44.643393	3.031324	43.676286
	1.599818	-1.927706	42.747351	5.421386	46.241031
	1.919983	-1.768420	40.219295	2.712649	41.163524
	1.476677	-3.520571	41.641327	2.075299	40.196054
	2.018496	-2.724139	41.483323	2.234636	40.993821
	1.575190	-3.201998	42.747351	1.915961	41.461314
	1.969240	-2.086993	42.747351	6.218074	46.878432
	1.772215	-3.679858	43.063358	3.668674	43.052174
	2.067752	-3.839144	42.115337	1.597286	39.873479
	1.698330	-3.839144	40.693306	1.119274	37.973435
	2.289405	-1.609133	41.799330	1.915961	42.106158
	1.772215	-3.042711	42.273341	4.943374	44.174003
	2.067752	-3.361285	41.799330	2.234636	40.672682
	1.919983	-3.201998	41.641327	2.712649	41.151977
	2.314034	-2.724139	41.009313	1.756624	40.041798
	2.215521	-2.564852	43.695372	2.712649	43.843169
	2.166265	-3.520571	42.273341	3.031324	41.784093
	1.969240	-2.086993	41.483323	3.987349	43.383679
	1.969240	-2.724139	41.009313	4.465361	42.750535
	1.870727	-2.405565	44.485390	3.668674	45.748497
	1.919983	-3.520571	45.275407	3.031324	44.786160
	1.747587	-3.679858	41.799330	2.393974	40.513446
	1.772215	-3.201998	39.745285	3.349999	39.893285
	1.525933	-1.449847	39.903288	2.234636	40.688078
	1.673702	-2.724139	41.799330	3.031324	42.106515
	1.969240	-2.883425	43.379365	4.306024	44.801964
	1.673702	-3.042711	42.273341	3.349999	42.580627
	1.993868	-2.405565	39.903288	2.871986	40.369709
	1.846099	-1.768420	41.325320	3.190661	42.747561
	1.919983	-3.679858	42.431344	3.190661	41.942148
	1.846099	-4.476290	43.063358	3.828011	42.415079
	2.043124	-1.290560	42.273341	3.509336	44.492117
	1.452049	-2.246279	41.009313	2.553311	41.316345
	2.215521	-5.591295	40.219295	0.800599	35.428598
	2.190893	-2.883425	43.063358	4.624699	44.804632
	5.146269	-0.334841	47.013446	7.333436	54.012041
	7.485941	1.895170	45.117404	6.536749	53.549322
	11.451071	2.691602	45.433411	6.696086	54.821099
	14.899009	5.080900	49.225495	9.086149	63.392543
	19.652239	8.903776	52.543568	12.113561	73.560905
	20.440339	11.770933	59.021712	15.459649	86.252293
	23.592741	16.230955	60.443743	19.124411	95.799109
	26.769770	17.664534	60.759750	20.558449	98.982732
	30.537875	24.991712	68.817928	25.019899	118.829540
	32.335729	34.071043	77.824128	32.508761	144.403932
	37.852433	38.371778	85.724303	36.014186	160.110267
	42.581035	41.398222	87.304338	39.519611	168.222171
	51.348654	49.203260	93.466475	48.123836	190.793571
	58.737098	64.972624	110.372849	59.436799	234.782272
	68.194307	70.229078	114.638944	59.277461	244.145483
	75.632009	78.830550	126.647210	69.634399	275.112158
	84.670542	87.432020	135.653409	77.441936	300.527366
	91.640311	96.352064	144.185598	85.886824	326.424486
	92.847091	107.183547	156.825878	93.057011	357.066436
	101.811742	118.492888	167.254109	102.457924	388.204921
	110.012922	128.368651	177.998347	108.353411	414.720409
	117.450630	140.315138	189.848610	115.842274	446.006022
	125.331647	154.810210	202.172883	125.721199	482.704291
	131.439435	166.915984	215.919187	135.440786	518.275957
	137.744251	179.977477	229.507488	147.550436	557.035401
	143.482619	197.817565	244.833828	158.226049	600.877441
	150.600166	216.454085	262.372216	169.539011	648.365313
	157.323664	239.232055	280.226612	185.472761	704.931428
	164.958407	257.868576	302.347102	203.318561	763.534238
	172.075959	279.372253	322.887557	221.005024	823.264833
	177.124742	305.654525	346.746085	242.674924	895.075534
	179.193512	331.299652	371.552635	261.954761	964.807047
	184.759489	355.511200	394.937153	282.190624	1032.638976
	189.561993	380.359894	421.165734	302.426486	1103.952114
	192.739034	405.686447	445.024262	322.662349	1173.373058
	194.093586	432.128006	469.830812	341.145499	1243.104317
	194.093586	451.720246	491.319288	358.991299	1302.030832
	193.945817	470.038193	509.647694	371.100949	1350.786836
	192.812918	489.311860	530.504156	385.281986	1405.098002
	192.591264	505.081223	547.094523	396.276274	1448.452020
	192.665149	518.302003	559.260793	405.039836	1482.602631
	193.576393	529.292771	573.323104	416.352799	1518.968674
	193.724163	539.964967	583.751335	421.292261	1545.008563
	193.945817	548.088578	594.653577	427.665761	1570.407916
	192.985316	557.008622	602.237745	432.923899	1592.170265
	191.359853	566.247239	608.557884	438.978724	1613.783847
	186.803632	570.866548	615.352035	444.077524	1630.296107
	182.641463	577.556581	621.356168	449.813673	1648.726423
	176.558293	587.591630	631.626396	460.967299	1680.185324
	172.075959	592.848085	636.050494	465.588086	1694.486664
	166.165189	594.281664	637.314522	468.296824	1699.893009
	162.298561	600.175264	641.738620	473.076949	1714.990832
	156.831100	603.998140	645.372700	478.494424	1727.865264
	152.521165	609.732454	650.902823	484.230574	1744.865850
	145.822297	605.431718	647.426746	481.043824	1733.902288
	139.443596	604.475999	646.478725	483.433886	1734.388610
	137.793507	601.608842	643.476658	480.565811	1725.651311
	130.011001	596.670961	640.790599	476.582374	1714.043933
	120.676921	590.140214	634.312455	471.164899	1695.617568
	112.623508	579.627305	625.464259	462.720011	1667.811576
	104.102162	568.158677	613.455993	455.709161	1637.323832
	98.536196	556.212190	601.763734	442.484149	1600.460072
	89.990224	542.672837	590.229479	430.533836	1563.436152
	84.276491	526.425614	577.589199	418.742861	1522.757674
	77.331351	510.178391	560.050810	405.358511	1475.587713
	71.125057	495.842606	544.250460	395.001574	1435.094640
	62.874627	482.143967	527.818096	379.067824	1389.029887
	56.397424	461.118150	511.069725	363.612086	1335.799960
	55.141389	443.118775	494.005347	349.112373	1286.236496
	43.566161	424.163681	473.938903	335.568686	1233.671270
	41.866819	406.482880	454.978483	321.706323	1183.167686
	36.300860	388.642792	435.386049	306.409923	1130.438764
	29.675891	368.413407	418.163667	293.344248	1079.921322
	25.710760	350.573319	399.677258	277.251161	1027.501737
	20.489596	330.981079	379.610813	262.273436	972.865328
	16.327441	313.778137	360.808397	248.729749	923.316282
	11.771236	293.708038	342.005980	232.636661	868.350679
	8.815860	274.115798	322.255543	222.120386	818.491727
	4.604450	260.098587	306.455193	208.417361	774.971140
	2.658827	243.214217	287.968783	193.120961	724.303962
	-0.641342	224.259124	270.272391	179.577274	674.108789
	-1.257045	207.215468	256.684090	167.626961	631.526520
	-2.316055	190.968245	237.565667	155.198636	583.732548
	-1.823492	175.676742	220.185282	142.451636	538.313659
	-1.577211	164.048827	207.703005	134.325423	506.077256
	-0.099523	147.960891	192.850676	120.144386	460.955953
	1.501305	136.492263	183.844477	111.062149	431.398888
	3.816350	124.705061	169.782165	101.979911	396.467138
	4.481309	114.032866	158.879924	94.491049	367.403838
	4.136515	102.882811	148.451693	88.914236	340.248740
	2.905109	94.599913	139.287490	79.831998	313.719401
	1.772215	86.954161	131.861325	72.502473	291.317960
	0.245271	82.653425	123.171133	66.766323	272.590882
	0.072874	72.299803	115.270958	62.304874	249.875634
	0.072874	66.884062	108.792814	59.277461	234.954337
	0.245271	60.831175	101.998664	52.744624	215.574462
	0.442296	55.574720	96.784548	47.167811	199.527080
	1.895355	51.592558	93.782482	44.777749	190.152788
	2.363290	46.654677	90.148401	42.069011	178.872089
	3.348415	43.468946	84.460275	40.634974	168.564195
	3.102134	41.716795	80.826194	36.332861	158.875851
	3.373043	39.964643	78.930153	34.739486	153.634282
	1.944612	34.230329	76.086090	31.393399	141.709818
	1.846099	31.841032	73.084023	28.684661	133.609716
	0.836346	32.318891	72.768016	28.684661	133.771569
	0.885602	30.726026	67.869908	24.701224	123.297158
	0.762461	28.018156	71.503988	27.091286	126.613430
	1.452049	26.106718	66.131869	22.789174	115.027761
	1.033371	22.124555	61.707771	19.443086	103.275413
	1.698330	22.761702	62.181782	18.965074	103.908557
	2.018496	20.053831	59.179715	16.256336	95.489882
	2.264777	18.779539	62.339785	16.734348	97.853673
	1.919983	17.983107	57.757684	15.618986	91.359776
	1.649074	15.753096	52.859575	13.706936	82.319607
	1.181140	14.956663	53.965600	11.954224	80.876486
	1.082627	11.770933	53.175582	11.794886	76.741401
	1.107255	10.974500	54.913621	9.882836	75.770957
	1.476677	10.337354	49.857509	9.245486	69.440349
	1.131883	12.089506	48.277474	10.520186	70.887166
	1.550562	8.266630	48.277474	7.174099	63.718202
	1.304280	7.788771	47.487456	6.377411	61.653638
	2.067752	6.992338	48.119470	5.262049	60.373857
	1.821471	6.036619	46.381432	6.058736	58.476787
	2.117009	4.921613	45.907421	7.970786	58.799821
	1.378165	3.806608	44.643393	5.102711	53.552712
	1.649074	2.691602	42.747351	2.553311	47.992265
	1.575190	4.603041	43.537369	3.190661	51.331070
	1.747587	2.054456	43.537369	4.146686	49.738511
	1.575190	2.213743	43.853376	4.943374	51.010492
	1.378165	0.461591	41.009313	2.075299	43.546203
	1.304280	0.939451	41.483323	3.349999	45.772773
	1.870727	-2.564852	41.641327	0.322586	39.399061
	1.402793	-3.201998	38.639260	-0.314764	35.122498
	1.821471	-1.449847	39.113271	0.641261	38.304685
	1.624446	-0.494128	39.587281	1.437949	40.531102
	2.067752	-1.449847	39.745285	2.393974	40.689412
	1.328908	-2.883425	42.431344	0.322586	39.870505
	1.698330	-3.679858	38.323253	-1.270789	33.372607
	1.649074	-2.724139	36.901222	-0.952114	33.224969
	1.624446	-2.564852	37.059225	-0.633439	33.860934
	1.328908	-3.520571	37.849243	0.959936	35.288607
	1.919983	-3.201998	42.115337	0.800599	39.713938
	1.747587	-4.157717	38.007246	0.481924	34.331453
	2.215521	-2.564852	37.059225	0.481924	34.976297
	1.476677	-4.635576	36.269208	-2.067477	29.566155
	2.511059	-4.317003	38.007246	-1.430127	32.260116
	1.846099	-3.998431	40.851309	-0.633439	36.219440
	2.067752	-1.609133	38.639260	2.075299	39.105426
	1.378165	-3.839144	36.585215	-0.474102	32.271969
	1.624446	-4.476290	37.691239	-1.111452	32.103498
	1.131883	-4.635576	37.691239	-1.111452	31.944211
	1.649074	-3.839144	39.903288	-0.952114	35.112030
	1.230396	-2.246279	38.481257	2.075299	38.310276
	1.772215	-4.954149	37.217229	-1.430127	30.832953
	1.328908	-3.201998	38.165250	-1.430127	33.533125
	2.067752	-3.042711	37.059225	-2.386151	31.630362
	1.304280	-3.361285	39.113271	-0.314764	35.437222
	1.747587	-3.998431	38.955267	1.756624	36.713460
	1.057999	-6.228441	37.691239	-1.908139	29.554659
	1.821471	-3.839144	37.533236	-2.386151	31.307940
	1.205768	-0.016268	38.955267	-0.474102	38.464898
	1.722958	-3.679858	40.377299	-0.952114	35.745327
	1.057999	-2.405565	39.903288	-0.155427	37.342296
	2.264777	-2.246279	38.797264	0.163249	36.714233
	1.772215	-2.246279	39.587281	1.278611	38.619613
	1.624446	-0.812701	40.061292	-0.314764	38.933827
	1.304280	-2.086993	44.169383	-1.111452	40.970939
	1.993868	0.302305	42.589348	0.800599	43.692251
	1.476677	-0.334841	39.271274	-0.474102	38.462332
	1.796843	-1.449847	40.377299	1.119274	40.046726
	1.082627	-2.246279	41.957334	0.481924	40.192978
	1.821471	-2.724139	44.169383	-1.270789	40.174455
	1.255024	-0.971987	41.325320	-0.474102	39.879231
	2.018496	1.258024	38.797264	-0.792777	39.262511
	1.033371	-1.609133	40.535302	-0.633439	38.292730
	1.624446	-1.609133	41.641327	-0.474102	39.558092
	0.959486	-2.405565	43.537369	1.437949	42.569752
	1.796843	-0.653414	41.641327	-0.314764	40.673149
	1.131883	-1.131274	39.429278	-0.952114	37.345890
	2.043124	-3.042711	40.377299	-1.589464	35.745123
	1.107255	-2.564852	40.535302	-0.633439	37.337011
	1.575190	-0.812701	44.327386	1.756624	45.271309
	1.107255	-1.449847	41.957334	0.959936	41.467423
	1.673702	-0.812701	42.115337	1.597286	42.899923
	0.959486	-2.405565	41.957334	0.481924	40.033692
	1.722958	1.098737	44.011379	4.306024	49.416140
	0.984115	-2.405565	43.379365	4.306024	45.279823
	1.747587	-0.334841	44.485390	3.987349	48.137897
	1.008743	-0.971987	43.221362	1.756624	44.005998
	1.255024	-1.609133	40.693306	0.003911	39.088084
	0.860974	-1.768420	41.799330	2.712649	42.743559
	1.575190	-4.317003	43.063358	2.393974	41.140328
	0.885602	-3.520571	41.167316	2.393974	40.040719
	1.796843	-3.679858	38.955267	4.306024	39.581433
	1.008743	-0.334841	42.115337	4.146686	45.927182
	1.525933	-2.883425	41.167316	1.437949	39.721840
	0.885602	-4.317003	43.063358	2.075299	40.821653
	1.698330	-4.317003	41.641327	3.987349	41.311672
	1.033371	-2.246279	40.219295	6.696086	44.669102
	1.427421	-2.724139	40.061292	3.190661	40.527814
	0.959486	-4.794863	40.693306	3.031324	38.929766
	1.378165	-4.317003	42.589348	2.553311	40.825655
	1.550562	-2.246279	42.273341	5.421386	45.448448
	1.525933	-3.839144	41.009313	3.031324	40.201492
	0.836346	-4.317003	40.377299	3.828011	39.888306
	1.649074	-6.069155	39.903288	4.146686	37.980819
	1.033371	-4.157717	43.063358	3.828011	42.733652
	1.427421	-3.042711	40.535302	3.190661	40.683252
	1.008743	-4.794863	39.271274	3.828011	38.304422
	1.378165	-4.317003	40.061292	3.987349	39.731637
	1.008743	-5.272723	40.693306	6.536749	41.957332
	1.402793	-4.317003	44.169383	3.828011	43.680390
	0.934858	-6.387728	40.693306	2.553311	36.858889
	1.525933	-4.635576	40.061292	3.349999	38.775714
	1.057999	-4.476290	40.377299	3.987349	39.888357
	1.452049	-2.405565	40.535302	5.262049	43.391785
	1.427421	-5.272723	42.589348	3.031324	40.347949
	1.575190	-5.750582	39.903288	1.756624	35.909330
	0.860974	-7.024874	38.481257	1.278611	32.734994
	1.525933	-3.839144	40.851309	3.987349	40.999514
	1.033371	-4.794863	40.377299	3.828011	39.410447
	1.427421	-4.635576	44.643393	4.146686	44.154503
	1.033371	-3.520571	42.115337	5.899399	44.494165
	1.550562	-4.157717	39.745285	3.031324	38.618891
	0.737833	-5.113436	40.219295	2.393974	37.499833
	1.575190	-5.591295	42.273341	3.190661	39.872706
	0.959486	-5.432009	42.747351	3.031324	40.346666
	1.550562	-4.635576	41.325320	3.987349	40.677092
	0.984115	-2.724139	39.903288	3.031324	40.210473
	1.230396	-4.157717	41.641327	2.234636	39.718246
	1.008743	-4.954149	41.641327	2.075299	38.762476
	1.427421	-4.476290	43.537369	3.349999	42.411077
	1.082627	-3.998431	42.431344	4.465361	42.898275
	1.279652	-3.042711	40.377299	2.393974	39.728561
	1.156511	-5.272723	40.693306	3.668674	39.089257
	1.230396	-3.839144	42.589348	2.393974	41.144177
	1.205768	-3.520571	42.589348	2.075299	41.144075
	1.476677	-3.520571	42.747351	2.393974	41.620754
	1.131883	-6.547015	39.745285	1.756624	34.954894
	1.427421	-5.113436	41.641327	4.465361	40.993252
	1.181140	-3.361285	42.431344	2.553311	41.623371
	1.427421	-0.334841	44.801397	1.915961	46.382517
	1.402793	-3.998431	41.957334	1.119274	39.078177
	1.181140	-1.449847	42.589348	4.465361	45.604862
	1.230396	-3.679858	41.483323	3.349999	41.153464
	1.575190	-2.086993	43.221362	2.712649	43.847018
	1.476677	-4.476290	44.959400	0.163249	40.646359
	1.501305	-5.909868	40.219295	-1.111452	33.197975
	1.550562	-3.201998	40.377299	1.437949	38.613249
	1.501305	-1.131274	42.589348	4.465361	45.923435
	1.624446	-3.520571	42.115337	1.915961	40.510727
	1.452049	-3.839144	43.853376	3.509336	43.523568
	1.353536	-4.157717	42.431344	2.393974	40.667601
	1.304280	-0.334841	42.905355	3.509336	46.079850
	2.067752	-3.679858	38.007246	-2.545489	31.781900
	1.304280	-1.131274	42.431344	2.871986	44.172057
	1.599818	-2.724139	41.325320	4.943374	43.544555
	1.550562	-2.724139	42.273341	2.712649	42.261851
	1.673702	-2.724139	41.009313	1.756624	40.041798
	1.476677	-2.405565	41.799330	1.437949	40.831713
	1.796843	-3.361285	42.115337	2.553311	41.307364
	1.402793	-2.086993	41.167316	3.349999	42.430322
	1.575190	-1.609133	41.641327	2.871986	42.904180
	1.624446	-3.679858	39.745285	2.712649	38.778076
	1.599818	-3.839144	42.273341	2.075299	40.509495
	1.501305	-3.520571	41.483323	2.234636	40.197388
	1.673702	-2.405565	40.851309	1.915961	40.361705
	1.550562	-0.175555	41.483323	2.712649	44.020417
	1.673702	-3.042711	40.219295	4.465361	41.641945
	1.378165	-2.883425	41.483323	2.234636	40.834534
	1.550562	-1.131274	42.115337	1.915961	42.900025
	1.452049	-2.246279	41.641327	1.597286	40.992334
	1.698330	-2.564852	41.957334	3.509336	42.901817
	1.427421	-3.520571	39.587281	4.624699	40.691409
	1.796843	-2.246279	41.009313	3.031324	41.794357
	1.452049	-1.449847	41.167316	1.756624	41.474093
	1.722958	-1.768420	43.695372	3.190661	45.117614
	1.525933	-4.635576	39.271274	0.959936	35.595634
	1.649074	-2.724139	39.587281	3.828011	40.691154
	1.353536	-3.042711	40.377299	2.712649	40.047236
	1.427421	-3.998431	41.957334	3.828011	41.786914
	1.452049	-4.157717	41.325320	2.075299	39.242901
	1.722958	-3.520571	40.693306	2.393974	39.566708
	1.624446	1.895170	43.379365	5.740061	51.014596
	1.747587	-3.201998	41.799330	3.031324	41.628656
	1.476677	-3.520571	41.957334	4.943374	43.380136
	1.452049	-4.317003	39.903288	2.871986	38.458271
	1.550562	-2.246279	42.115337	3.190661	43.059719
	1.673702	-0.016268	43.063358	3.828011	46.875101
	1.575190	-2.564852	43.379365	3.987349	44.801862
	1.599818	-3.520571	42.273341	3.987349	42.740118
	1.279652	-3.201998	41.957334	4.784036	43.539372
	1.772215	-3.520571	42.115337	5.899399	44.494165
	1.378165	-1.768420	42.431344	3.349999	44.012923
	1.821471	-3.520571	43.853376	2.712649	43.045453
	1.501305	-3.042711	42.905355	2.871986	42.734629
	1.821471	-2.883425	40.219295	3.031324	40.367194
	1.599818	-3.998431	41.799330	4.943374	42.744273
	1.698330	-5.591295	40.535302	1.597286	36.541293
	1.476677	-4.157717	43.379365	2.553311	41.774959
	1.796843	-3.679858	42.747351	2.871986	41.939480
	1.747587	-2.246279	42.115337	3.668674	43.537732
	1.698330	-4.635576	42.589348	4.784036	42.737807
	1.575190	-1.768420	43.853376	5.899399	47.984355
	1.624446	-2.724139	42.905355	2.553311	42.734527
	1.353536	-3.839144	42.589348	2.393974	41.144177
	1.501305	-5.272723	42.905355	3.668674	41.301306
	1.378165	-4.635576	43.537369	6.536749	45.438541
	1.279652	-4.317003	41.167316	3.668674	40.518986
	1.575190	-0.812701	43.063358	5.262049	47.512706
	1.649074	-4.954149	42.273341	2.871986	40.191177
	1.378165	-2.564852	44.485390	4.943374	46.863911
	1.821471	-5.113436	42.589348	2.712649	40.188560
	1.550562	-2.724139	43.537369	5.102711	45.915941
	1.944612	-2.883425	43.379365	5.421386	45.917326
	1.402793	-5.113436	42.589348	3.190661	40.666573
	1.575190	-7.821306	38.639260	-0.314764	30.503190
	1.673702	-7.502734	39.745285	0.800599	33.043150
	1.944612	-3.520571	43.537369	4.784036	44.800834
	1.476677	-5.750582	43.695372	3.987349	41.932139
	1.919983	-5.909868	42.273341	3.190661	39.554133
	1.476677	-3.998431	42.115337	5.580724	43.697630
	1.673702	-0.971987	42.747351	4.465361	46.240725
	1.378165	-2.883425	43.379365	4.465361	44.961301
	1.846099	-6.387728	42.273341	1.756624	37.642236
	1.328908	-5.432009	42.905355	3.668674	41.142019
	1.895355	-4.476290	41.167316	5.740061	42.431087
	1.353536	-1.927706	43.695372	5.262049	47.029715
	1.624446	-5.113436	42.273341	2.075299	39.235203
	1.599818	-2.246279	45.591414	4.943374	48.288509
	1.895355	-2.883425	42.905355	3.987349	44.009278
	1.255024	-2.564852	42.747351	7.174099	47.356598
	1.846099	-5.113436	43.063358	4.624699	42.574621
	1.205768	-5.113436	42.905355	3.349999	41.141917
	1.870727	-3.679858	44.011379	3.509336	43.840858
	1.205768	-2.883425	42.905355	4.306024	44.327953
	1.476677	-4.794863	42.273341	5.102711	42.581189
	1.057999	-3.520571	43.221362	4.943374	44.644164
	1.722958	-3.520571	42.115337	3.031324	41.626090
	0.885602	-1.449847	45.433411	5.421386	49.404950
	1.575190	-4.635576	42.589348	3.828011	41.781782
	1.107255	-4.157717	42.273341	4.146686	42.262310
	1.575190	-3.679858	43.063358	4.624699	44.008199
	0.787089	-1.131274	44.011379	7.970786	50.850892
	1.796843	-2.724139	44.959400	4.943374	47.178635
	0.910230	-5.113436	43.221362	2.712649	40.820574
	1.919983	-3.520571	43.221362	4.306024	44.006814
	0.959486	-4.157717	41.957334	3.828011	41.627628
	1.919983	-1.927706	42.115337	4.306024	44.493655
	0.885602	-2.405565	45.907421	5.899399	49.401254
	1.747587	-4.317003	42.747351	5.580724	44.011071
	0.959486	-7.343447	39.113271	0.800599	32.570422
	1.673702	-5.591295	40.851309	1.756624	37.016637
	1.501305	-4.317003	42.431344	2.393974	40.508314
	1.550562	-2.724139	46.065425	6.058736	49.400022
	1.033371	-2.086993	45.117404	8.289461	51.319872
	1.698330	-1.449847	43.379365	5.102711	47.032230
	0.885602	-2.405565	43.853376	4.465361	45.913171
	1.772215	-2.883425	44.327386	4.943374	46.387335
	1.255024	-5.272723	43.853376	3.668674	42.249327
	1.698330	-3.520571	44.169383	6.058736	46.707548
	1.131883	-3.361285	43.221362	5.262049	45.122126
	1.624446	-3.520571	43.695372	3.349999	43.524800
	0.984115	-3.201998	43.853376	3.668674	44.320051
	1.846099	-0.971987	45.117404	5.421386	49.566803
	0.959486	-2.564852	44.801397	7.970786	50.207331
	1.624446	-4.794863	41.957334	4.306024	41.468494
	0.910230	-4.794863	42.905355	3.668674	41.779165
	1.846099	-3.201998	43.537369	3.987349	44.322719
	1.550562	-2.883425	44.327386	3.987349	45.431310
	2.141637	-4.476290	43.537369	3.987349	43.048427
	1.575190	-3.201998	43.695372	5.899399	46.392773
	2.486431	-2.724139	44.011379	7.811449	49.098689
	2.363290	-3.201998	44.011379	5.580724	46.390105
	3.348415	-2.405565	46.381432	5.262049	49.237915
	3.225274	-2.246279	45.591414	5.740061	49.085196
	3.939490	-3.520571	43.063358	4.624699	44.167486
	3.840978	-0.016268	45.749418	8.130124	53.863273
	4.850731	-1.131274	46.381432	7.333436	52.583594
	5.023128	-1.449847	48.119470	7.811449	54.481072
	6.303791	1.098737	48.435477	9.086149	58.620363
	7.288916	3.169462	48.593481	9.882836	61.645779
	8.471067	4.921613	47.645460	8.767474	61.334547
	8.914373	6.673765	52.227561	12.432236	71.333562
	11.057020	8.585203	56.177649	16.893686	81.656538
	12.189915	10.337354	55.545635	15.459649	81.342638
	14.406447	11.293074	55.703638	14.981636	81.978348
	15.785622	15.434522	60.917754	20.239773	96.592050
	17.583476	17.186674	62.971799	21.992486	102.150959
	17.780501	21.168837	67.869908	27.250623	116.289368
	20.046289	26.425291	68.817928	27.409961	122.653180
	21.326952	27.221723	71.503988	29.003336	127.729048
	23.075550	30.726026	75.138069	32.349424	138.213519
	24.848776	35.823194	81.616212	37.766899	155.206305
	26.474233	39.486784	85.882306	40.475636	165.844727
	28.075062	42.672514	88.252359	42.228349	173.153222
	30.931926	45.061811	91.412429	45.733774	182.208014
	33.000689	50.158980	96.152534	48.442511	194.754025
	36.103835	56.371153	102.472674	53.541311	212.385138
	38.492764	59.875456	109.582832	57.365411	226.823699
	41.054091	62.264753	112.742902	61.348849	236.356504
	42.384010	65.609770	116.060975	65.650961	247.321706
	43.935583	72.618376	121.749101	68.519036	262.886513
	46.004347	78.511977	127.437227	69.634399	275.583602
	48.171624	79.626982	132.809346	72.821149	285.257477
	50.462041	85.520583	137.549451	78.557299	301.627332
	52.629318	88.387740	141.025528	82.222061	311.635329
	55.412298	94.281340	145.765633	84.930798	324.977772
	57.456434	99.537795	151.295756	89.232911	340.066461
	58.909495	102.086379	156.509871	89.392249	347.988498
	60.584209	107.502120	159.511938	92.419661	359.433718
	62.455948	113.395720	163.778032	95.447074	372.620826
	63.268677	119.767180	169.782165	101.342561	390.891906
	64.475456	122.315764	174.048260	105.644674	402.008697
	64.253803	131.872954	181.316421	110.106123	423.295498
	65.756120	137.288695	185.266508	112.974199	435.529402
	66.815131	145.730879	191.586648	117.754324	455.071851
	67.997282	149.713042	196.958767	121.897099	468.568908
	69.204061	156.562362	202.804897	128.111261	487.478519
	70.139931	163.252395	209.283040	133.528736	506.064171
	70.632494	170.898147	214.181149	138.786874	523.866169
	71.814645	178.066039	219.553268	143.248324	540.867630
	72.011670	184.118926	226.663425	151.374536	562.156887
	72.405721	188.578948	231.561534	154.401949	574.542430
	72.184067	198.454711	240.093723	161.094124	599.642557
	71.543735	202.436873	243.253793	166.670936	612.361602
	71.075801	208.967620	250.521954	171.451061	630.940634
	70.755635	211.994064	253.366017	174.000461	639.360541
	69.942906	217.409805	259.212146	177.187211	653.809162
	68.194307	222.825546	262.530220	179.258599	664.614364
	66.642733	224.418410	266.480307	185.950774	676.849491
	65.115788	227.126281	270.114388	185.950774	683.191442
	63.391818	226.807708	272.642444	185.313424	684.763575
	62.135782	230.152725	273.906472	187.862824	691.922020
	61.199913	231.427017	273.274458	187.862824	692.564298
	59.377430	228.241287	273.590464	185.791436	687.623187
	58.712470	227.126281	273.432461	185.472761	686.031503
	56.569821	225.214843	275.486507	186.269449	686.970798
	55.412298	224.099838	271.536419	183.560711	679.196968
	54.304032	220.754821	267.428328	180.214624	668.397773
	52.850971	216.772659	265.058276	176.390524	658.221458
	50.462041	218.843383	267.112321	179.577274	665.532978
	48.614930	213.586928	263.162234	174.478474	651.227636
	45.930463	207.374755	256.052076	169.698349	633.125180
	44.280377	202.914733	251.153968	165.874249	619.942949
	41.472769	199.729003	247.835894	163.165511	610.730408
	39.995081	197.658278	246.255859	161.890811	605.804949
	37.433754	192.879683	241.831761	156.473336	591.184780
	36.177719	186.030364	233.931586	152.489899	572.451849
	33.443996	183.163207	228.559467	152.011886	563.734560
	32.360358	178.384612	223.977366	144.682361	547.044339
	29.872916	173.287444	219.869275	141.017599	534.174317
	30.193081	167.075271	217.499222	135.600124	520.174616
	27.828780	164.685973	211.337086	135.918799	511.941857
	26.622002	159.270232	202.488890	132.254036	494.013158
	24.233072	156.243789	197.748785	125.561861	479.554434
	23.420344	148.916609	193.798697	121.419086	464.134392
	21.056043	144.297301	192.692673	118.391673	455.381647
	20.046289	139.837279	183.844477	115.682936	439.364692
	17.928270	135.695830	177.682340	114.408236	427.786406
	17.017029	131.076522	173.416246	108.353411	412.846178
	14.948266	125.342208	169.782165	104.688649	399.813021
	14.283306	120.563613	166.622095	100.386536	387.572244
	12.313055	116.740736	159.195931	97.199786	373.136453
	12.510080	111.324996	153.507805	93.375686	358.208486
	11.648096	104.634963	149.241710	90.348274	344.224946
	11.130905	99.537795	143.869591	86.683511	330.090897
	9.406936	99.059935	142.131553	84.293449	325.484936
	8.643463	93.166335	134.389381	75.689223	303.244939
	7.609082	86.635588	128.701255	72.661811	287.998654
	7.362801	82.653425	126.331203	71.227774	280.212402
	5.958997	76.919111	120.959084	68.678374	266.556569
	5.761972	73.574095	116.692989	63.898249	254.165333
	4.727590	69.114073	111.320870	60.233486	240.668429
	4.776847	66.246916	109.582832	57.684086	233.513834
	3.890234	57.486158	102.788681	50.035886	210.310726
	4.062631	56.849013	101.366650	50.195224	208.410886
	3.840978	50.955412	93.940485	46.371124	191.267021
	3.594696	47.132536	92.992464	46.530461	186.655461
	3.176018	44.265379	89.042377	41.431661	174.739417
	3.299159	41.079649	85.250293	37.129549	163.459490
	2.855852	41.876081	83.196247	35.536174	160.608502
	3.151390	35.823194	81.142202	34.261474	151.226870
	2.732712	32.478178	77.350118	33.305449	143.133744
	2.954365	30.088881	73.716037	29.481348	133.286266
	2.609571	25.469572	69.449943	23.904536	118.824050
	2.954365	23.239561	68.185914	22.151823	113.577299
	2.240149	22.920988	70.555967	24.860561	118.337516
	2.658827	21.487409	66.447876	24.701224	112.636509
	1.846099	21.646696	63.603813	21.992486	107.242995
	2.486431	16.549528	61.075757	18.487061	96.112346
	1.821471	16.708815	62.497789	19.443086	98.649689
	2.437174	14.478804	60.443743	18.168386	93.090933
	1.427421	15.115949	59.495722	16.734348	91.346020
	1.895355	15.753096	56.967666	15.778324	88.499085
	1.772215	11.452360	57.125670	17.212361	85.790391
	1.919983	11.133787	56.493656	14.822299	82.449741
	1.599818	8.425916	52.543568	11.954224	72.923708
	2.117009	7.310911	52.227561	10.201511	69.739983
	1.993868	9.700209	52.701572	12.272899	74.674679
	2.584943	6.833052	53.175582	11.316874	71.325507
	2.117009	5.558759	51.279540	11.157536	67.995836
	2.535687	6.355192	49.699505	10.360849	66.415546
	1.944612	7.310911	52.701572	10.679524	70.692006
	2.412546	3.328748	50.647526	8.448799	62.425073
	1.870727	3.169462	51.279540	7.652111	62.101113
	2.560315	4.443754	50.647526	7.970786	63.062066
	2.018496	5.877333	48.119470	8.926811	62.923614
	2.314034	1.258024	48.593481	4.943374	54.794878
	2.067752	3.328748	50.173516	6.058736	59.561000
	2.732712	3.169462	51.279540	5.421386	59.870388
	2.043124	3.647321	50.805530	7.333436	61.786287
	2.658827	0.143018	47.171449	6.536749	53.851216
	2.412546	3.010175	50.805530	6.696086	60.511791
	2.683456	5.080900	52.227561	7.492774	64.801235
	2.240149	5.718046	52.227561	7.014761	64.960368
	2.806596	3.965895	51.753551	8.130124	63.849569
	2.043124	4.443754	51.911554	9.882836	66.238144
	3.126762	-0.175555	47.961467	4.146686	51.932598
	2.658827	6.514479	53.017579	10.360849	69.892906
	2.954365	1.576597	50.963533	9.086149	61.626279
	2.584943	2.532316	50.489523	8.130124	61.151962
	3.274531	2.532316	48.435477	7.333436	58.301229
	2.708084	2.373029	48.435477	6.855424	57.663930
	3.052878	3.965895	50.489523	10.838861	65.294278
	2.732712	3.647321	51.595547	8.926811	64.169680
	3.077506	3.010175	49.857509	7.492774	60.360458
	2.757340	3.965895	48.593481	8.448799	61.008174
	3.348415	4.921613	48.593481	9.086149	62.601243
	3.028249	4.443754	49.541502	11.316874	65.302129
	3.594696	4.125181	51.753551	10.838861	66.717593
	3.397671	0.620878	48.277474	9.245486	58.143838
	3.619325	4.443754	49.067491	10.042174	63.553419
	3.249903	4.125181	47.487456	8.289461	59.902098
	3.643953	3.965895	49.699505	9.723499	63.388898
	3.594696	3.647321	50.173516	10.360849	64.181686
	3.865606	4.284467	50.015512	13.069586	67.369566
	3.964118	3.169462	47.171449	9.245486	59.586397
	4.013375	3.806608	49.067491	9.723499	62.597598
	4.087259	4.125181	49.383498	10.520186	64.028865
	4.161143	6.036619	52.701572	12.591574	71.329764
	4.358168	7.470198	51.595547	14.025611	73.091356
	4.579822	3.806608	48.119470	10.201511	62.127589
	4.702962	5.877333	50.963533	10.998199	67.839064
	5.220153	7.151625	52.227561	12.113561	71.492747
	5.244781	5.399473	51.753551	11.954224	69.107247
	5.515691	4.284467	50.963533	13.706936	68.954937
	5.761972	7.788771	52.543568	15.140974	75.473312
	6.106766	8.266630	52.859575	13.706936	74.833141
	6.106766	9.540922	51.911554	12.432236	73.884712
	6.180650	8.266630	55.229628	13.706936	77.203194
	6.574700	8.903776	54.755617	14.025611	77.685004
	6.599328	10.496641	55.545635	16.734348	82.776624
	6.968750	11.930219	56.651659	19.602424	88.184302
	7.215032	11.293074	55.703638	15.300311	82.297023
	7.362801	11.293074	59.179715	15.778324	86.251112
	7.682966	12.408079	58.389698	17.212361	88.010138
	7.904619	9.381636	55.703638	15.459649	80.544922
	8.323298	13.204512	58.073691	18.646399	89.924601
	8.495695	12.567366	59.969733	18.327724	90.864822
	9.136026	14.319517	62.971799	20.558449	97.849765
	9.357679	15.115949	61.233761	19.124411	95.474121
	9.603961	17.823820	62.339785	19.921099	100.084704
	9.850242	16.390241	61.391764	19.602424	97.384429
	10.490573	16.708815	63.603813	21.036461	101.349089
	10.786111	17.983107	66.447876	23.904536	108.335519
	11.007764	20.053831	66.605880	23.107848	109.767559
	11.081649	21.487409	65.499855	20.717786	107.705051
	11.451071	21.168837	67.395897	22.629836	111.194569
	11.943633	21.009550	67.395897	23.107848	111.513296
	12.214543	23.717420	71.345985	26.772611	121.836016
	12.337683	24.832426	71.819995	26.772611	123.425032
	13.027271	23.876707	71.345985	25.338573	120.561265
	13.396693	25.947432	73.084023	26.931949	125.963403
	13.716859	27.699583	73.716037	27.728636	129.144256
	13.987768	31.044600	76.876107	29.481348	137.402055
	14.578844	28.336729	75.454076	28.206648	131.997453
	14.948266	33.433897	78.930153	32.668099	145.032148
	15.662481	32.637465	78.456142	30.437373	141.530980
	15.613225	35.823194	82.090223	34.420811	152.334228
	15.760994	34.389616	82.406230	32.827436	149.623282
	16.179672	32.000318	79.720170	31.074724	142.795212
	16.672235	37.734632	83.038244	37.607561	158.380437
	17.090913	36.938200	81.932219	33.624124	152.494542
	17.460335	38.849638	85.566300	34.420811	158.836748
	17.780501	39.008924	88.568366	36.332861	163.910152
	18.223807	41.079649	88.410363	39.200936	168.690948
	18.667114	43.468946	88.884373	40.156961	172.510280
	18.938023	47.769682	88.568366	40.316299	176.654347
	19.726124	44.743238	91.570433	42.706361	179.020032
	19.602983	46.176817	94.098489	41.272324	181.547629
	19.972405	46.336103	93.624478	42.228349	182.188930
	19.849264	49.362547	94.256492	43.184374	186.803413
	20.711249	51.273985	95.046509	45.096424	191.416918
	20.859018	52.229704	98.838594	48.920524	199.988821
	20.908274	52.548277	98.364583	46.052449	196.965309
	21.129927	55.415434	99.944618	47.964499	203.324551
	21.622490	55.574720	99.944618	48.283174	203.802512
	21.696374	55.415434	101.050643	50.354561	206.820638
	22.336706	56.689726	103.420695	52.107274	212.217695
	22.287450	59.556883	105.948751	52.107274	217.612908
	22.582987	61.786894	103.894706	50.832574	216.514173
	22.312078	60.034742	103.894706	51.947936	215.877384
	22.632244	61.149748	104.684723	53.541311	219.375782
	22.656872	63.539046	107.528786	56.250049	227.317880
	22.952409	61.946180	107.844793	53.541311	223.332285
	22.681500	64.335478	109.424828	57.684086	231.444392
	23.050922	65.291197	109.582832	56.887399	231.761427
	22.656872	67.521208	111.162867	58.640111	237.324186
	23.174062	64.494765	107.528786	53.381974	225.405524
	22.804640	68.636213	114.638944	59.596136	242.871293
	23.247947	69.910505	114.322937	63.101561	247.335003
	22.755384	69.910505	114.638944	61.508186	246.057635
	23.001666	70.547652	114.322937	60.233486	245.104074
	22.755384	71.981230	114.006930	59.436799	245.424958
	22.878525	70.069792	114.480940	60.870836	245.421568
	22.336706	71.344084	115.902972	61.986199	249.233254
	22.656872	71.025511	115.112954	60.870836	247.009301
	22.410590	72.140517	118.115021	63.898249	254.153785
	22.410590	72.299803	116.692989	61.826861	250.819653
	21.770259	71.662657	116.060975	61.826861	249.550493
	22.065796	72.777663	117.167000	61.667524	251.612186
	21.671746	75.644819	119.063042	63.898249	258.606110
	21.770259	72.299803	119.379049	63.579574	255.258425
	21.647118	71.662657	117.008996	62.304874	250.976527
	21.499349	71.344084	115.586965	60.233486	247.164535
	20.637365	72.936949	117.008996	60.870836	250.816781
	21.056043	73.892668	116.060975	60.552161	250.505804
	20.440339	71.821944	118.115021	63.420236	253.357200
	20.341827	71.025511	115.902972	60.074149	247.002631
	19.529098	73.096236	115.586965	61.667524	250.350724
	19.800008	73.096236	117.008996	61.508186	251.613418
	19.258189	69.751219	114.638944	59.277461	243.667624
	19.036536	68.954786	114.006930	58.480774	241.442490
	18.740998	68.636213	113.216912	57.843424	239.696549
	18.913395	69.751219	113.374916	58.799449	241.925583
	17.977526	68.954786	113.690923	58.640111	241.285820
	17.854385	69.432646	113.532919	59.596136	242.561701
	17.411079	69.114073	112.268891	58.162099	239.545063
	17.731245	66.087630	110.688856	56.250049	233.026534
	16.992401	64.176192	110.372849	58.321436	232.870476
	17.066285	64.654051	110.214846	55.931374	230.800270
	15.958019	66.724775	110.530853	55.772036	233.027664
	16.450582	64.654051	110.214846	53.063299	227.932195
	15.366944	64.654051	108.792814	55.294024	228.740889
	15.834878	59.556883	103.262692	52.744624	215.564198
	14.972894	60.194029	105.632744	52.744624	218.571397
	15.293059	60.034742	105.000730	54.337999	219.373471
	14.554215	58.760450	105.158734	51.469924	215.389108
	14.849753	58.441877	103.104688	49.557874	211.104439
	13.987768	58.123305	101.050643	49.398536	208.572483
	14.480331	57.326872	102.314671	50.991911	210.633454
	13.445949	56.530439	101.366650	50.991911	208.889000
	14.209421	58.601164	103.420695	49.557874	211.579733
	12.780990	56.371153	101.208646	49.876549	207.456348
	13.421321	54.619002	97.732569	47.327149	199.678719
	12.608593	53.663283	97.732569	47.327149	198.723000
	13.224296	53.185423	98.048576	47.008474	198.242473
	12.583965	51.911131	99.470607	46.849136	198.230874
	12.805618	50.955412	96.152534	46.849136	193.957082
	12.263799	51.592558	93.624478	45.733774	190.950810
	12.288427	51.751844	94.256492	45.096424	191.104760
	11.820493	49.521833	94.098489	44.777749	188.398070
	12.411568	48.088255	96.152534	43.503049	187.743838
	11.648096	46.017530	90.464408	43.343711	179.825650
	12.189915	46.495390	89.200380	41.112986	176.808756
	11.426442	45.061811	91.096422	41.750336	177.908569
	11.795864	43.787519	89.516387	39.678949	172.982855
	11.377186	45.061811	92.044443	40.953649	178.059903
	11.672724	45.380384	86.672324	40.634974	172.687682
	11.180161	42.672514	85.566300	39.360274	167.599087
	11.426442	43.787519	87.936352	39.519611	171.243482
	10.859995	41.398222	86.830328	38.085574	166.314123
	11.377186	41.557508	87.778349	37.607561	166.943418
	10.613714	42.513227	85.092289	37.448224	165.053740
	10.933880	40.601790	84.144268	37.766899	162.512956
	10.786111	38.531065	82.880240	37.607561	159.018866
	10.958508	36.938200	82.722237	34.420811	154.081248
	10.736855	38.212492	82.564233	34.261474	155.038199
	10.933880	38.053205	82.880240	34.261474	155.194919
	10.909252	37.416059	81.774216	35.376836	154.567111
	10.786111	36.938200	81.458208	35.536174	153.932582
	10.958508	39.646071	81.774216	34.261474	155.681759
	10.786111	36.778913	83.828261	34.102136	154.709310
	11.081649	37.256773	81.616212	35.376836	154.249821
	10.983136	35.026762	82.722237	33.783461	151.532460
	11.130905	35.186048	80.826194	33.783461	149.795704
	10.983136	36.141768	83.512254	33.624124	153.278145
	11.130905	34.071043	80.984198	33.464786	148.520027
	10.810739	34.867475	80.352184	32.349424	147.569083
	11.303302	33.752470	78.614146	30.915386	143.282002
	10.736855	35.982481	80.510188	33.624124	150.116792
	11.278674	35.823194	79.720170	32.190086	147.733451
	11.032392	34.867475	81.458208	35.217499	151.543183
	11.401814	35.504621	80.036177	32.349424	147.890222
	10.933880	35.186048	81.932219	33.146111	150.264379
	11.475699	32.318891	78.614146	33.942799	144.875835
	11.352558	33.911756	77.666125	30.756049	142.333930
	11.303302	35.026762	80.036177	32.508761	147.571700
	10.909252	34.230329	79.246160	32.508761	145.985250
	11.475699	36.778913	80.194181	34.739486	151.712580
	11.007764	30.566740	75.612079	28.206648	134.385468
	11.869749	36.301054	83.354251	33.783461	153.438766
	11.229417	35.982481	81.300205	33.942799	151.225485
	11.746608	36.301054	78.614146	34.898823	149.814023
	11.204789	34.389616	80.352184	32.827436	147.569236
	11.623468	34.071043	78.614146	31.552736	144.237925
	11.327930	36.619627	80.352184	32.508761	149.480572
	11.697352	34.867475	80.984198	32.986774	148.838447
	11.500327	35.982481	82.880240	35.376836	154.239557
	12.214543	35.504621	81.458208	34.898823	151.861653
	11.746608	35.982481	81.458208	35.854849	153.295538
	12.288427	35.663908	81.458208	33.942799	151.064915
	12.017518	35.504621	80.826194	35.695511	152.026327
	12.189915	36.460340	79.878174	32.508761	148.847275
	12.165286	35.663908	83.670258	31.712074	151.046239
	12.707105	34.548902	80.036177	31.712074	146.297153
	12.263799	36.460340	83.196247	34.261474	153.918061
	12.510080	38.212492	81.774216	35.058161	155.044869
	12.411568	32.637465	77.982132	32.190086	142.809682
	12.879502	33.593183	80.352184	32.508761	146.454129
	11.992889	36.778913	81.300205	35.217499	153.296617
	13.101155	39.646071	84.302272	36.332861	160.281203
	12.337683	40.761076	83.354251	35.376836	159.492163
	13.273552	38.849638	84.934286	36.173524	159.957447
	12.657849	37.416059	83.196247	35.217499	155.829805
	13.445949	37.734632	82.880240	37.129549	157.744421
	12.633221	38.531065	82.722237	35.376836	156.630138
	13.445949	39.486784	83.828261	34.739486	158.054531
	12.928759	40.442503	86.514321	36.492199	163.449022
	13.593718	41.557508	86.830328	39.041599	167.429435
	12.830246	41.398222	86.830328	39.997624	168.226173
	13.593718	39.646071	83.512254	36.810874	159.969198
	12.854874	39.964643	85.408296	36.810874	162.183813
	13.815371	41.079649	88.094356	37.448224	166.622228
	13.051899	41.557508	86.830328	39.838286	168.226122
	13.766115	44.265379	86.356317	39.200936	169.822632
	13.347437	38.690351	82.406230	35.536174	156.632755
	14.086281	41.398222	87.462342	40.794311	169.654875
	13.396693	40.761076	87.778349	37.926236	166.465661
	14.234050	42.353941	87.304338	37.129549	166.787828
	13.716859	44.583952	86.830328	38.085574	169.499853
	14.332562	43.309660	87.146335	39.678949	170.134943
	13.642974	44.106093	89.516387	42.387686	176.010165
	14.628100	42.672514	89.200380	39.519611	171.392505
	13.987768	45.858244	90.306405	43.343711	179.508360
	14.283306	48.566114	90.938419	41.272324	180.776857
	13.889256	43.628233	91.254426	39.041599	173.924257
	14.554215	45.539671	90.780415	40.634974	176.955060
	14.086281	48.088255	91.728436	43.662386	183.479077
	14.455703	46.654677	91.096422	43.662386	181.413485
	14.480331	46.495390	91.096422	41.750336	179.342148
	14.677356	43.150374	91.728436	38.244911	173.123721
	14.160165	45.539671	90.306405	40.316299	176.162374
	14.652728	47.132536	89.358384	41.590999	178.081918
	14.209421	48.406828	92.676457	43.981061	185.064346
	14.726612	45.698957	91.728436	42.387686	179.815080
	14.283306	44.583952	93.782482	41.272324	179.638757
	14.751240	49.521833	92.834461	42.387686	184.743980
	14.406447	49.043974	90.306405	42.228349	181.578727
	14.701984	48.566114	95.678523	44.140399	188.385037
	14.480331	44.743238	89.990398	40.316299	175.049935
	15.046778	48.566114	94.256492	44.299736	187.122343
	14.283306	49.043974	94.098489	43.821724	186.964186
	14.701984	46.973249	92.202447	42.069011	181.244707
	14.480331	47.291822	92.676457	41.909674	181.877953
	14.726612	49.043974	93.308471	43.821724	186.174169
	14.455703	49.362547	93.308471	44.937086	187.608104
	14.554215	47.610396	93.308471	42.865699	183.784565
	14.234050	48.884687	93.308471	43.025036	185.218194
	14.603472	48.406828	93.466475	42.706361	184.579664
	14.209421	49.521833	93.150468	43.184374	185.856674
	14.825125	48.247541	95.836527	43.981061	188.065130
	14.184793	46.495390	91.886440	42.069011	180.450841
	14.677356	49.840406	92.992464	46.052449	188.885319
	13.889256	48.406828	92.202447	42.387686	182.996960
	14.726612	48.725401	93.466475	43.025036	185.216912
	14.135537	46.973249	94.888506	41.750336	183.612092
	14.628100	48.566114	93.466475	44.140399	186.172988
	14.234050	48.088255	91.096422	44.140399	183.325075
	14.504959	52.070417	95.046509	45.255761	192.372688
	14.529587	47.451109	92.360450	41.112986	180.924545
	14.431075	45.061811	92.676457	39.041599	176.779867
	14.037025	46.654677	92.676457	42.865699	182.196832
	14.209421	49.840406	93.308471	45.574436	188.723314
	14.234050	49.840406	91.254426	42.228349	183.323181
	14.258678	48.088255	93.150468	45.096424	186.335146
	14.504959	48.088255	93.782482	42.706361	184.577098
	14.012396	49.840406	93.782482	43.662386	187.285274
	14.381818	47.610396	90.938419	42.228349	180.777163
	14.037025	46.495390	91.254426	42.228349	179.978164
	14.406447	45.061811	90.780415	43.025036	178.867263
	14.357190	46.654677	93.782482	41.750336	182.187494
	14.431075	49.203260	92.360450	42.387686	183.951397
	14.086281	47.291822	90.464408	41.909674	179.665904
	14.012396	46.495390	91.412429	41.750336	179.658155
	14.110909	48.247541	92.834461	44.299736	185.381738
	14.135537	47.451109	95.204513	42.228349	184.883971
	13.913884	45.858244	92.202447	41.112986	179.173677
	14.283306	45.061811	88.726370	40.316299	174.104480
	13.642974	45.858244	90.148401	40.953649	176.960294
	14.160165	49.203260	91.570433	42.706361	183.480054
	13.692231	47.132536	93.940485	42.706361	183.779382
	14.357190	44.424665	89.674391	42.387686	176.486742
	13.790743	45.539671	89.516387	41.272324	176.328382
	13.864628	46.495390	90.938419	39.997624	177.431432
	13.741487	47.769682	91.412429	40.316299	179.498410
	14.037025	46.017530	90.148401	41.590999	177.756930
	13.716859	44.743238	89.832394	42.387686	176.963319
	13.839999	45.061811	89.990398	41.431661	176.483870
	13.298181	46.176817	91.254426	41.750336	179.181579
	13.569090	45.221098	89.832394	39.678949	174.732440
	13.298181	45.539671	90.464408	41.909674	177.913752
	13.864628	45.061811	90.780415	40.634974	176.477200
	13.569090	46.813963	90.306405	40.953649	178.074016
	13.716859	45.858244	91.254426	43.343711	180.456381
	13.593718	43.468946	88.884373	39.041599	171.394918
	13.839999	44.424665	89.042377	40.316299	173.783341
	13.273552	44.743238	90.148401	39.997624	174.889263
	13.667603	46.176817	88.252359	40.475636	174.904812
	13.002643	44.743238	90.306405	43.025036	178.074679
	13.692231	44.583952	89.832394	40.316299	174.732645
	13.027271	46.336103	90.306405	40.156961	176.799469
	13.495206	44.265379	89.200380	38.882261	172.348020
	13.125784	42.831800	88.252359	40.634974	171.719133
	13.593718	43.309660	88.252359	41.909674	173.471693
	13.150412	42.831800	87.620345	38.722924	169.175069
	13.273552	46.176817	89.358384	38.563586	174.098787
	12.854874	43.628233	89.200380	39.519611	172.348224
	13.372065	44.106093	88.726370	39.997624	172.830086
	12.904130	43.787519	88.884373	39.041599	171.713491
	13.421321	41.876081	86.830328	38.244911	166.951320
	12.756362	43.946806	87.778349	39.360274	171.085428
	13.495206	46.495390	88.252359	41.272324	176.020072
	12.854874	43.468946	89.832394	39.678949	172.980289
	13.495206	43.787519	88.884373	38.244911	170.916803
	12.978015	46.336103	89.042377	39.678949	175.057429
	13.298181	41.876081	88.094356	38.882261	168.852698
	12.756362	44.424665	89.832394	40.316299	174.573358
	13.445949	43.309660	88.726370	41.590999	173.627028
	12.928759	46.973249	89.200380	40.475636	176.649266
	13.495206	41.876081	86.988331	38.085574	166.949986
	12.879502	42.513227	88.252359	40.316299	171.081885
	13.519834	46.973249	90.148401	40.794311	177.915961
	12.583965	41.398222	84.934286	36.970211	163.302719
	13.051899	45.380384	90.148401	40.953649	176.482434
	12.904130	43.787519	86.514321	39.041599	169.343438
	13.372065	42.831800	86.988331	38.882261	168.702393
	12.583965	45.061811	89.832394	39.678949	174.573154
	13.224296	43.150374	86.830328	38.085574	168.066275
	12.583965	43.309660	88.252359	40.953649	172.515668
	13.273552	44.265379	89.832394	39.519611	173.617384
	12.362311	45.221098	89.516387	40.794311	175.531796
	13.347437	43.946806	87.778349	41.431661	173.156815
	12.731733	43.468946	88.252359	39.360274	171.081579
	13.322809	45.858244	87.778349	39.678949	173.315541
	12.362311	45.061811	89.516387	40.316299	174.894497
	13.199668	42.353941	87.620345	39.360274	169.334560
	12.830246	42.672514	89.990398	42.069011	174.731922
	13.445949	41.238935	86.514321	36.810874	164.564130
	12.707105	42.035368	88.884373	39.838286	170.758027
	13.519834	41.716795	87.304338	38.563586	167.584719
	12.583965	43.309660	86.988331	39.519611	169.817602
	13.125784	44.902525	87.146335	39.997624	172.046483
	12.707105	42.991087	87.936352	39.200936	170.128375
	13.298181	44.106093	90.148401	40.316299	174.570792
	13.051899	46.654677	89.042377	40.953649	176.650702
	13.248924	42.831800	85.724303	38.882261	167.438365
	13.027271	42.991087	87.778349	38.404249	169.173684
	13.248924	43.628233	87.936352	38.882261	170.446846
	13.273552	44.265379	89.042377	40.475636	173.783391
	13.421321	41.876081	87.462342	39.678949	169.017372
	12.830246	44.583952	91.886440	41.112986	177.583378
	13.199668	42.831800	87.936352	37.607561	168.375714
	13.027271	43.787519	86.672324	38.404249	168.864092
	13.248924	42.513227	87.778349	39.200936	169.492512
	13.445949	44.424665	88.726370	42.547024	175.698059
	13.544462	45.061811	88.252359	39.360274	172.674444
	13.642974	41.557508	87.304338	38.563586	167.425432
	13.519834	43.309660	89.200380	40.953649	173.463689
	13.790743	45.061811	88.726370	39.678949	173.467129
	13.101155	43.787519	88.094356	39.519611	171.401486
	13.692231	43.150374	87.936352	38.404249	169.490974
	13.593718	45.539671	87.778349	40.156961	173.474980
	13.790743	43.150374	87.462342	41.750336	172.363051
	13.470577	43.787519	88.884373	39.360274	172.032166
	13.790743	44.424665	90.306405	38.882261	173.613331
	13.347437	43.787519	89.042377	39.997624	172.827519
	13.864628	44.106093	89.358384	40.316299	173.780775
	13.224296	43.628233	89.358384	41.431661	174.418278
	13.741487	43.468946	87.462342	38.722924	169.654212
	12.978015	42.831800	88.094356	40.475636	171.401792
	13.667603	44.106093	89.832394	42.387686	176.326173
	13.224296	42.831800	89.200380	38.722924	170.755104
	13.790743	47.132536	89.516387	40.953649	177.602572
	13.051899	43.946806	87.936352	39.519611	171.402769
	13.519834	45.380384	89.832394	41.112986	176.325765
	13.051899	45.221098	88.094356	40.475636	173.791089
	13.692231	44.265379	90.306405	40.156961	174.728745
	12.830246	44.424665	89.042377	39.360274	172.827315
	13.421321	43.787519	88.252359	39.200936	171.240814
	12.707105	43.787519	88.726370	39.997624	172.511513
	13.667603	43.946806	87.620345	42.228349	173.795500
	12.854874	43.468946	88.410363	40.156961	172.036270
	13.347437	45.221098	90.148401	39.997624	175.367123
	13.175040	44.583952	91.728436	38.563586	174.875974
	13.445949	46.176817	91.412429	42.228349	179.817595
	13.248924	46.017530	89.990398	43.821724	179.829652
	13.692231	45.380384	89.042377	39.997624	174.420385
	13.175040	44.106093	88.884373	40.475636	173.466102
	13.519834	45.221098	89.674391	41.750336	176.645825
	13.396693	46.336103	89.674391	41.431661	177.442155
	13.544462	44.902525	90.780415	39.360274	175.043214
	13.618346	44.583952	89.516387	39.519611	173.619950
	13.421321	46.654677	91.412429	41.750336	179.817442
	13.519834	44.265379	89.200380	42.069011	175.534770
	13.298181	43.946806	86.988331	39.519611	170.454748
	13.667603	43.468946	88.884373	40.156961	172.510280
	13.716859	44.424665	89.042377	39.200936	172.667978
	13.445949	45.061811	94.888506	42.706361	182.656679
	13.445949	42.194654	88.410363	41.272324	171.877341
	13.741487	45.380384	89.042377	40.475636	174.898397
	13.396693	47.132536	89.358384	39.838286	176.329206
	13.445949	44.424665	89.042377	39.360274	172.827315
	13.347437	45.380384	89.200380	41.272324	175.853088
	13.667603	48.247541	92.360450	44.299736	184.907728
	13.445949	44.902525	91.254426	40.156961	176.313911
	13.298181	44.424665	89.358384	40.475636	174.258685
	13.642974	43.628233	88.410363	40.156961	172.195556
	13.593718	44.902525	89.042377	40.794311	174.739213
	13.421321	45.061811	90.148401	42.069011	177.279224
	13.815371	44.106093	90.938419	40.316299	175.360810
	13.298181	46.495390	90.780415	41.909674	179.185478
	13.716859	45.539671	87.620345	40.953649	174.113664
	13.495206	44.743238	89.990398	40.634974	175.368610
	13.445949	44.743238	88.094356	39.200936	172.038530
	13.495206	47.928968	90.780415	40.794311	179.503694
	13.445949	45.380384	90.148401	41.431661	176.960446
	13.593718	45.221098	92.992464	43.184374	181.397936
	13.495206	46.176817	90.306405	40.475636	176.958858
	13.445949	45.539671	91.886440	41.272324	178.698434
	13.421321	46.495390	91.412429	43.184374	181.092193
	13.569090	46.176817	88.410363	40.794311	175.381490
	13.199668	46.654677	90.306405	41.750336	178.711417
	13.101155	46.176817	91.096422	41.590999	178.864238
	13.618346	44.106093	90.780415	40.794311	175.680818
	13.322809	45.539671	90.622412	43.343711	179.505794
	13.421321	44.743238	92.992464	42.387686	180.123389
	13.347437	43.468946	89.516387	38.563586	171.548920
	13.569090	44.902525	87.778349	39.360274	172.041147
	13.544462	45.221098	87.936352	38.722924	171.880374
	13.519834	43.468946	89.042377	42.069011	174.580334
	13.224296	44.106093	92.360450	39.360274	175.826816
	13.470577	48.406828	91.412429	41.750336	181.569593
	13.593718	45.698957	90.464408	40.953649	177.117014
	13.790743	45.061811	89.674391	40.794311	175.530513
	13.741487	45.221098	90.148401	43.503049	178.872548
	13.593718	43.150374	87.146335	38.563586	168.860294
	13.445949	45.539671	90.938419	40.634974	177.113063
	13.175040	44.902525	91.412429	40.156961	176.471915
	13.593718	45.858244	90.938419	42.547024	179.343686
	13.248924	42.991087	86.198314	38.882261	168.071662
	13.544462	44.265379	89.516387	39.838286	173.620052
	13.027271	44.743238	89.042377	40.634974	174.420589
	13.421321	45.698957	90.780415	40.475636	176.955009
	13.298181	45.061811	89.990398	40.794311	175.846520
	13.544462	44.583952	88.252359	41.590999	174.427310
	12.928759	43.628233	89.832394	39.997624	173.458250
	13.741487	43.946806	87.146335	39.360274	170.453414
	13.101155	42.194654	87.936352	39.838286	169.969293
	13.593718	44.265379	90.780415	40.794311	175.840105
	13.101155	44.583952	92.834461	38.244911	175.663323
	13.667603	41.398222	88.568366	37.448224	167.414812
	13.051899	42.831800	90.148401	39.997624	172.977825
	13.815371	44.265379	88.884373	41.431661	174.581413
	13.199668	43.787519	88.252359	39.519611	171.559489
	13.667603	43.150374	88.568366	39.678949	171.397688
	13.199668	44.265379	89.042377	40.953649	174.261404
	13.839999	48.247541	91.412429	41.112986	180.772956
	13.150412	42.194654	88.094356	37.766899	168.055909
	13.815371	43.946806	90.306405	39.041599	173.294809
	13.199668	50.158980	92.676457	42.865699	185.701135
	13.913884	44.265379	87.620345	41.272324	173.158047
	13.445949	45.539671	90.148401	41.431661	177.119733
	13.913884	44.424665	90.464408	39.200936	174.090010
	13.495206	46.336103	94.256492	40.475636	181.068232
	13.741487	43.946806	88.726370	39.519611	172.192787
	13.322809	45.061811	89.516387	43.503049	178.081247
	13.667603	45.061811	89.832394	40.475636	175.369842
	13.396693	46.017530	89.516387	39.200936	174.734854
	13.642974	42.831800	87.620345	38.882261	169.334406
	13.445949	44.265379	89.516387	39.678949	173.460714
	13.766115	44.424665	89.674391	40.953649	175.052705
	13.322809	44.265379	89.674391	39.678949	173.618718
	13.470577	44.424665	88.568366	39.041599	172.034630
	13.421321	43.468946	89.674391	39.678949	172.822286
	13.445949	43.946806	88.726370	39.678949	172.352124
	13.667603	42.831800	91.096422	42.069011	175.997233
	13.445949	43.787519	90.306405	39.997624	174.091548
	13.519834	44.265379	89.042377	39.997624	173.305379
	13.421321	42.194654	89.674391	41.750336	173.619381
	13.421321	42.831800	87.304338	39.519611	169.655750
	13.298181	45.539671	90.464408	40.156961	176.161040
	13.470577	44.902525	89.990398	40.634974	175.527896
	13.372065	44.424665	90.780415	41.272324	176.477404
	13.519834	45.380384	90.148401	42.706361	178.235147
	13.322809	45.858244	89.674391	38.404249	173.936883
	13.372065	44.424665	90.622412	40.475636	175.522713
	13.347437	44.902525	88.884373	40.156961	173.943859
	13.618346	46.336103	89.516387	40.156961	176.009451
	13.150412	44.265379	89.516387	41.750336	175.532102
	13.544462	45.539671	92.360450	40.794311	178.694432
	13.125784	42.672514	88.568366	39.200936	170.441816
	13.593718	44.265379	87.462342	39.519611	171.247332
	12.953387	44.902525	89.832394	41.112986	175.847905
	13.421321	44.265379	89.674391	42.547024	176.486793
	12.854874	44.583952	90.148401	40.156961	174.889314
	13.544462	45.539671	89.358384	39.360274	174.258328
	13.002643	45.380384	92.834461	40.794311	179.009156
	13.125784	44.106093	89.042377	39.678949	172.827418
	12.928759	46.336103	88.568366	39.838286	174.742756
	13.445949	42.194654	87.304338	36.810874	166.309866
	12.854874	43.309660	88.884373	39.838286	172.032319
	13.667603	43.787519	91.096422	42.069011	176.952952
	12.928759	44.743238	90.464408	40.316299	175.523945
	13.445949	42.353941	91.570433	38.882261	172.806635
	12.854874	42.991087	89.516387	39.041599	171.549073
	13.593718	44.902525	89.358384	40.316299	174.577207
	12.879502	44.424665	88.726370	42.706361	175.857396
	13.470577	43.946806	89.990398	39.997624	173.934827
	12.854874	44.902525	90.464408	39.838286	175.205219
	13.716859	45.380384	89.200380	39.041599	173.622363
	12.854874	44.583952	90.938419	40.794311	176.316682
	13.495206	44.743238	90.464408	39.041599	174.249245
	12.953387	47.451109	87.936352	38.882261	174.269722
	13.445949	44.265379	89.674391	39.997624	173.937393
	12.904130	44.106093	88.884373	42.069011	175.059477
	13.667603	46.495390	89.042377	40.156961	175.694727
	12.904130	44.743238	90.148401	39.678949	174.570588
	13.938512	42.831800	89.516387	37.766899	170.115086
	12.978015	44.106093	90.306405	40.156961	174.569458
	13.618346	44.265379	88.252359	41.909674	174.427412
	12.904130	43.946806	89.042377	39.519611	172.508793
	13.593718	43.787519	90.148401	39.519611	173.455532
	12.953387	44.743238	90.780415	38.882261	174.405914
	13.889256	45.221098	89.042377	39.200936	173.464411
	12.928759	42.991087	86.988331	40.156961	170.136379
	13.716859	45.061811	90.464408	40.316299	175.842518
	13.199668	47.451109	90.780415	41.590999	179.822523
	13.889256	46.495390	91.412429	42.547024	180.454843
	12.756362	45.061811	90.464408	40.634974	176.161193
	13.716859	45.221098	94.098489	41.590999	180.910585
	12.978015	43.468946	88.884373	38.244911	170.598230
	13.544462	41.398222	87.620345	38.404249	167.422816
	13.027271	42.991087	89.200380	40.156961	172.348428
	13.495206	44.902525	89.832394	40.156961	174.891880
	12.756362	48.088255	91.728436	40.953649	180.770340
	13.593718	45.539671	90.464408	39.041599	175.045678
	13.150412	44.743238	91.886440	40.475636	177.105314
	13.913884	47.769682	90.148401	42.387686	180.305769
	12.978015	44.265379	88.884373	39.200936	172.350688
	13.593718	44.583952	89.516387	38.722924	172.823263
	12.978015	44.424665	89.674391	39.041599	173.140654
	13.815371	45.858244	92.202447	40.953649	179.014339
	13.175040	44.902525	90.780415	42.387686	178.070626
	13.815371	44.265379	90.464408	39.519611	174.249398
	13.150412	44.743238	90.306405	39.997624	175.047267
	13.790743	42.513227	86.514321	38.882261	167.909809
	13.027271	43.628233	89.674391	39.519611	172.822234
	13.889256	44.583952	90.464408	38.404249	173.452608
	13.150412	45.858244	89.358384	38.882261	174.098889
	13.569090	44.106093	90.464408	38.404249	172.974749
	12.879502	46.495390	92.676457	43.343711	182.515558
	13.839999	45.221098	90.148401	39.200936	174.570435
	13.076527	44.424665	89.516387	39.838286	173.779339
	13.322809	43.787519	89.674391	38.244911	171.706821
	13.199668	44.265379	88.410363	38.722924	171.398665
	13.642974	44.902525	91.728436	42.069011	178.699972
	13.027271	43.946806	89.832394	38.882261	172.661461
	13.790743	45.380384	90.148401	40.634974	176.163759
	13.298181	44.265379	89.832394	39.200936	173.298709
	13.815371	44.583952	89.516387	40.794311	174.894650
	13.322809	43.150374	89.358384	39.997624	172.506381
	13.766115	47.610396	92.992464	41.750336	182.353196
	13.372065	44.902525	92.518454	39.041599	176.462577
	13.642974	42.672514	88.884373	39.041599	170.598485
	13.618346	45.698957	89.516387	41.112986	176.328331
	13.766115	46.813963	89.516387	39.200936	175.531286
	13.495206	44.743238	90.306405	39.519611	174.569254
	13.618346	42.991087	87.620345	38.085574	168.697006
	13.790743	46.176817	91.412429	41.909674	179.498919
	13.889256	43.787519	93.150468	38.882261	175.820248
	13.963140	43.628233	90.148401	37.926236	171.702870
	13.593718	43.628233	88.884373	37.926236	170.438842
	13.864628	43.628233	88.884373	39.041599	171.554205
	13.618346	45.221098	90.306405	41.909674	177.437176
	13.987768	46.813963	93.782482	42.228349	182.824793
	13.495206	45.539671	91.096422	39.678949	176.315042
	14.110909	45.698957	90.306405	39.519611	175.524973
	13.716859	43.946806	90.464408	39.678949	174.090163
	13.889256	45.061811	89.042377	41.112986	175.217174
	13.396693	48.725401	93.150468	41.431661	183.307529
	13.692231	46.336103	92.202447	41.590999	180.129548
	13.618346	45.380384	89.990398	41.750336	177.121118
	14.037025	46.336103	90.780415	39.838286	176.954804
	13.667603	45.221098	92.676457	38.882261	176.779816
	14.110909	45.380384	91.570433	39.838286	176.789103
	13.519834	46.176817	89.358384	39.678949	175.214149
	13.913884	42.831800	88.884373	39.838286	171.554460
	13.839999	44.902525	90.148401	39.519611	174.570537
	13.987768	42.035368	90.464408	38.404249	170.904024
	13.790743	43.628233	89.674391	38.722924	172.025547
	14.086281	44.583952	90.780415	40.316299	175.680666
	13.618346	44.583952	91.728436	43.025036	179.337424
	13.815371	45.061811	88.884373	39.200936	173.147120
	13.593718	48.088255	90.622412	39.838286	178.548953
	14.135537	43.946806	89.990398	38.563586	172.500789
	13.199668	45.858244	94.888506	41.431661	182.178411
	13.963140	45.061811	90.622412	40.475636	176.159859
	13.199668	42.513227	87.620345	36.810874	166.944446
	13.889256	47.291822	93.150468	42.387686	182.829976
	13.322809	45.061811	91.096422	41.909674	178.067907
	13.864628	45.858244	90.464408	40.794311	177.116963
	13.347437	45.380384	91.412429	39.200936	175.993750
	13.741487	44.902525	92.676457	39.519611	177.098593
	13.076527	45.858244	91.728436	40.794311	178.380991
	13.938512	48.247541	91.728436	42.228349	182.204326
	12.904130	44.106093	90.148401	39.200936	173.455430
	13.716859	45.539671	91.254426	38.882261	175.676358
	13.101155	46.495390	91.570433	39.200936	177.266759
	13.790743	47.451109	93.466475	42.706361	183.623945
	13.076527	44.743238	92.992464	41.590999	179.326701
	13.790743	46.495390	91.728436	39.678949	177.902775
	13.199668	45.858244	90.464408	40.794311	177.116963
	13.569090	44.583952	90.780415	41.272324	176.636691
	13.175040	46.973249	91.412429	40.953649	179.339327
	13.741487	43.787519	88.726370	37.448224	169.962113
	12.978015	43.628233	90.622412	38.722924	172.973568
	13.692231	43.628233	92.676457	40.156961	176.461651
	13.224296	45.858244	92.518454	42.228349	180.605046
	13.495206	46.813963	90.938419	40.953649	178.706030
	13.125784	44.902525	91.412429	38.882261	175.197215
	13.618346	42.991087	89.200380	37.288886	169.480353
	13.421321	47.291822	92.044443	40.156961	179.493226
	13.790743	44.902525	91.412429	42.706361	179.021315
	13.298181	44.265379	89.358384	39.997624	173.621386
	13.593718	45.221098	92.044443	39.200936	176.466477
	13.396693	44.902525	89.832394	39.200936	173.935855
	13.766115	46.017530	92.518454	41.112986	179.648970
	13.322809	41.876081	89.990398	40.475636	172.342115
	13.445949	46.495390	95.046509	40.953649	182.495548
	13.273552	44.424665	89.832394	37.766899	172.023958
	13.470577	44.583952	90.306405	40.156961	175.047317
	13.519834	44.902525	91.570433	40.156961	176.629919
	13.790743	46.336103	90.780415	41.590999	178.707517
	13.716859	44.743238	91.254426	39.200936	175.198600
	13.544462	45.061811	91.886440	39.838286	176.786537
	13.470577	47.291822	93.624478	42.865699	183.781999
	13.716859	45.698957	92.202447	40.634974	178.536378
	13.766115	45.380384	90.464408	39.678949	175.523741
	13.618346	45.061811	90.938419	38.722924	174.723154
	13.569090	44.902525	90.306405	39.678949	174.887878
	13.692231	44.106093	90.780415	41.909674	176.796181
	13.421321	46.336103	93.150468	41.750336	181.236907
	13.519834	43.628233	93.624478	38.404249	175.656960
	13.544462	44.424665	92.518454	41.112986	178.056105
	13.495206	44.743238	92.518454	40.953649	178.215341
	13.692231	44.265379	90.306405	38.563586	173.135370
	13.618346	45.061811	92.202447	40.316299	177.580557
	13.593718	46.336103	92.518454	41.909674	180.764230
	13.544462	44.424665	91.096422	41.112986	176.634073
	13.741487	47.610396	92.992464	40.156961	180.759821
	13.618346	44.902525	92.044443	39.200936	176.147904
	13.815371	42.353941	87.936352	36.492199	166.782492
	13.618346	45.858244	91.096422	39.678949	176.633615
	13.766115	44.583952	90.780415	40.475636	175.840003
	13.618346	44.106093	92.518454	39.678949	176.303494
	14.037025	42.672514	90.622412	36.651536	169.946461
	13.692231	45.698957	90.622412	39.360274	175.681643
	13.987768	44.265379	91.096422	39.200936	174.562737
	13.790743	44.106093	89.832394	41.909674	175.848160
	14.307934	44.265379	90.464408	39.200936	173.930723
	13.815371	45.698957	91.096422	39.360274	176.155653
	13.963140	42.991087	93.624478	38.085574	174.701139
	13.618346	46.495390	93.308471	41.909674	181.713534
	13.913884	46.336103	91.096422	42.865699	180.298224
	13.618346	44.902525	91.728436	39.838286	176.469247
	14.110909	45.698957	92.360450	40.475636	178.535044
	13.839999	42.513227	91.412429	39.041599	172.967255
	13.815371	43.787519	90.938419	39.200936	173.926874
	13.839999	44.583952	94.730503	42.228349	181.542803
	13.889256	41.557508	90.306405	37.607561	169.471474
	13.519834	45.061811	93.308471	40.475636	178.845919
	14.110909	42.831800	90.938419	40.953649	174.723868
	13.569090	43.787519	91.886440	40.634974	176.308932
	14.061653	44.583952	91.412429	38.882261	174.878642
	13.445949	45.858244	92.676457	39.678949	178.213649
	13.815371	43.787519	95.520520	39.838286	179.146326
	13.642974	42.194654	89.990398	39.838286	172.023338
	13.938512	47.769682	92.044443	39.838286	179.652411
	13.421321	44.743238	92.518454	40.634974	177.896666
	13.741487	43.628233	91.254426	40.475636	175.358294
	13.273552	45.380384	91.096422	40.634974	177.111780
	13.692231	43.150374	91.096422	39.200936	173.447732
	13.248924	43.468946	93.624478	39.997624	177.091048
	13.741487	42.353941	90.938419	39.041599	172.333958
	13.199668	42.831800	89.832394	39.678949	172.343143
	14.061653	42.991087	89.042377	37.926236	169.959700
	13.027271	42.353941	91.412429	39.678949	173.445318
	13.987768	43.628233	92.360450	38.882261	174.870944
	13.224296	41.876081	88.568366	36.970211	167.414659
	13.938512	44.265379	91.728436	42.387686	178.381501
	13.175040	42.513227	91.254426	38.722924	172.490577
	13.864628	42.991087	89.832394	37.129549	169.953030
	13.248924	41.876081	89.200380	36.810874	167.887335
	14.037025	40.761076	90.148401	37.926236	168.835713
	13.273552	42.353941	92.992464	42.387686	177.734091
	14.086281	45.221098	92.834461	41.590999	179.646557
	13.298181	42.194654	90.148401	39.360274	171.703329
	14.110909	42.035368	91.570433	39.360274	172.966074
	13.298181	43.946806	91.570433	40.794311	176.311550
	14.012396	41.398222	89.516387	39.838286	170.752895
	13.273552	42.672514	91.570433	39.838286	174.081233
	14.258678	45.221098	94.572499	41.431661	181.225258
	13.421321	44.424665	92.202447	41.750336	178.377448
	14.332562	42.991087	91.886440	40.475636	175.353163
	13.421321	43.309660	91.412429	38.563586	173.285675
	14.307934	45.539671	89.358384	38.563586	173.461640
	13.642974	43.628233	91.412429	40.794311	175.834973
	14.061653	43.150374	92.044443	42.069011	177.263827
	13.741487	42.353941	93.150468	38.882261	174.386670
	14.258678	43.628233	91.570433	39.519611	174.718277
	13.569090	43.309660	90.938419	39.838286	174.086365
	14.406447	43.309660	91.728436	40.475636	175.513732
	13.913884	44.743238	92.202447	43.184374	180.130059
	14.234050	45.221098	92.992464	39.997624	178.211186
	13.815371	42.513227	91.254426	38.722924	172.490577
	14.628100	43.150374	92.202447	38.722924	174.075744
	13.766115	47.451109	93.308471	42.547024	183.306603
	14.480331	44.424665	91.412429	41.909674	177.746768
	13.642974	45.858244	92.676457	41.750336	180.285037
	14.332562	48.566114	94.572499	43.662386	186.801000
	14.160165	42.672514	91.096422	39.519611	173.288547
	14.357190	44.106093	93.150468	41.590999	178.847559
	13.593718	42.991087	90.780415	41.431661	175.203163
	14.258678	44.743238	92.360450	40.156961	177.260649
	13.716859	43.150374	90.938419	40.794311	174.883103
	14.332562	43.150374	91.254426	41.750336	176.155135
	13.667603	45.380384	92.676457	40.953649	179.010490
	14.529587	45.698957	94.730503	39.041599	179.471059
	13.618346	42.672514	91.096422	38.722924	172.491860
	14.529587	44.583952	91.412429	40.156961	176.153342
	13.987768	48.406828	92.518454	42.228349	183.153630
	14.381818	41.876081	88.884373	37.607561	168.368015
	13.864628	45.539671	91.412429	41.112986	178.065086
	14.529587	49.362547	94.888506	45.255761	189.506814
	13.741487	45.380384	93.782482	41.112986	180.275852
	14.480331	46.336103	93.150468	40.316299	179.802870
	13.790743	47.132536	92.834461	41.272324	181.239320
	14.455703	45.221098	92.044443	40.634974	177.900514
	13.913884	46.176817	92.202447	44.140399	182.519662
	14.357190	44.902525	92.044443	40.794311	177.741279
	14.184793	47.928968	94.414496	41.431661	183.775125
	14.554215	45.061811	94.256492	38.722924	178.041227
	13.741487	45.221098	92.518454	41.750336	179.489888
	14.480331	45.061811	90.780415	42.547024	178.389250
	13.815371	47.451109	92.676457	41.272324	181.399890
	14.234050	46.176817	92.360450	40.156961	178.694228
	13.642974	45.380384	92.044443	40.475636	177.900464
	14.184793	46.017530	92.676457	40.475636	179.169624
	13.421321	45.698957	93.940485	43.662386	183.301828
	14.184793	44.902525	92.676457	40.794311	178.373293
	13.642974	42.353941	89.832394	38.882261	171.068596
	14.110909	46.176817	92.044443	40.634974	178.856234
	13.175040	45.698957	93.624478	42.387686	181.711122
	14.381818	43.946806	92.834461	41.272324	178.053590
	13.101155	46.176817	93.308471	41.272324	180.757611
	14.332562	49.203260	91.886440	41.272324	182.362023
	13.569090	47.769682	94.572499	43.981061	186.323242
	14.332562	47.610396	93.624478	43.184374	184.419247
	13.593718	48.247541	91.570433	40.475636	180.293610
	14.258678	45.539671	92.518454	40.316299	178.374423
	13.445949	45.858244	94.730503	41.590999	182.179745
	14.209421	42.353941	89.990398	39.838286	172.182625
	13.642974	43.468946	88.884373	38.722924	171.076243
	14.086281	44.902525	92.360450	40.156961	177.419936
	13.470577	43.628233	90.306405	39.200936	173.135574
	14.110909	46.017530	91.570433	41.750336	179.338299
	13.593718	47.132536	93.466475	44.299736	184.898746
	13.938512	44.902525	93.466475	40.634974	179.003973
	13.101155	44.265379	91.096422	40.316299	175.678100
	14.135537	46.973249	91.570433	43.184374	181.728055
	13.322809	44.583952	92.202447	41.112986	177.899385
	13.839999	44.583952	89.832394	38.882261	173.298607
	13.544462	47.610396	92.202447	41.431661	181.244503
	14.086281	44.106093	91.728436	40.156961	175.991490
	13.396693	45.380384	95.204513	43.343711	183.928609
	13.963140	46.336103	92.044443	41.112986	179.493532
	13.421321	43.946806	90.780415	38.404249	173.131469
	13.741487	44.743238	91.886440	40.316299	176.945977
	14.258678	44.265379	90.938419	41.431661	176.635459
	13.913884	44.743238	90.148401	42.706361	177.598001
	13.396693	42.513227	91.570433	39.997624	174.081284
	14.037025	42.513227	92.360450	39.519611	174.393289
	13.372065	42.991087	90.306405	39.041599	172.339090
	13.963140	46.973249	90.464408	40.156961	177.594618
	13.347437	43.946806	90.464408	42.706361	177.117575
	13.913884	44.743238	91.254426	39.997624	175.995288
	13.667603	48.884687	94.098489	42.228349	185.211525
	14.135537	44.902525	91.570433	41.272324	177.745281
	13.298181	45.061811	90.780415	40.634974	176.477200
	13.963140	45.221098	92.202447	40.634974	178.058518
	13.224296	43.787519	88.568366	38.244911	170.600797
	13.642974	45.221098	92.202447	41.750336	179.173880
	13.347437	45.539671	92.676457	43.662386	181.878514
	13.889256	47.132536	96.310537	43.184374	186.627447
	13.248924	47.291822	92.044443	41.909674	181.245939
	14.061653	44.902525	90.148401	40.794311	175.845237
	13.125784	44.902525	91.412429	40.634974	176.949928
	14.037025	46.973249	91.570433	42.228349	180.772030
	13.101155	45.539671	91.886440	40.953649	178.379759
	13.815371	45.061811	91.728436	39.041599	175.831846
	13.002643	45.380384	92.834461	39.678949	177.893794
	13.864628	43.628233	90.306405	39.200936	173.135574
	13.199668	44.583952	89.674391	42.228349	176.486691
	14.110909	43.787519	90.306405	38.882261	172.976185
	13.175040	45.061811	90.148401	40.316299	175.526511
	14.135537	43.628233	91.096422	41.750336	176.474991
	13.224296	44.424665	92.360450	41.431661	178.216777
	14.258678	44.424665	94.256492	39.200936	177.882094
	13.372065	41.557508	89.990398	37.926236	169.474142
	14.135537	43.150374	91.412429	40.156961	174.719763
	13.396693	42.194654	89.832394	40.634974	172.662022
	14.061653	46.176817	90.148401	39.041599	175.366817
	13.125784	44.583952	90.464408	38.722924	173.771284
	13.889256	44.743238	91.886440	39.200936	175.830614
	13.125784	46.017530	93.782482	41.112986	180.912998
	13.790743	45.061811	91.254426	42.228349	178.544586
	13.372065	44.902525	90.780415	40.316299	175.999239
	13.839999	42.991087	89.990398	39.041599	172.023083
	13.322809	44.424665	90.622412	39.519611	174.566688
	13.667603	44.424665	92.992464	40.953649	178.370778
	13.175040	44.265379	91.728436	42.387686	178.381501
	13.889256	43.150374	89.200380	38.085574	170.436327
	13.445949	42.831800	88.252359	36.810874	167.895033
	13.889256	42.831800	88.884373	38.244911	169.961084
	13.569090	45.380384	91.886440	41.272324	178.539148
	13.913884	46.017530	91.412429	41.590999	179.020958
	13.101155	45.061811	93.624478	40.316299	179.002588
	13.790743	44.106093	91.412429	40.475636	175.994158
	13.101155	43.946806	89.358384	41.112986	174.418176
	13.987768	43.309660	90.148401	39.360274	172.818335
	14.012396	43.946806	91.412429	40.316299	175.675534
	13.913884	44.265379	90.938419	40.156961	175.360759
	13.125784	45.221098	92.044443	40.953649	178.219189
	14.037025	42.991087	92.834461	41.590999	177.416546
	13.002643	42.991087	91.570433	39.678949	174.240468
	13.741487	44.743238	89.674391	39.678949	174.096578
	12.978015	44.106093	91.728436	40.156961	175.991490
	13.372065	44.424665	90.622412	40.794311	175.841388
	13.101155	44.583952	90.780415	40.475636	175.840003
	13.839999	46.336103	90.780415	38.722924	175.839442
	13.224296	44.265379	94.730503	40.634974	179.630855
	13.913884	43.309660	90.306405	41.431661	175.047726
	13.273552	46.017530	90.148401	39.997624	176.163555
	13.495206	44.583952	90.464408	39.360274	174.408634
	13.495206	45.858244	92.676457	40.953649	179.488349
	13.544462	43.468946	91.412429	39.360274	174.241649
	13.519834	44.424665	90.938419	41.431661	176.794745
	13.889256	44.902525	93.308471	41.272324	179.483319
	13.445949	44.583952	91.886440	39.519611	175.990003
	13.790743	44.265379	89.674391	38.563586	172.503355
	13.593718	46.813963	91.254426	40.794311	178.862700
	13.889256	44.265379	90.938419	42.706361	177.910159
	13.716859	45.221098	92.676457	40.475636	178.373191
	13.716859	48.088255	93.308471	41.590999	182.987725
	13.569090	44.743238	90.148401	39.519611	174.411250
	13.667603	44.265379	90.938419	39.997624	175.201421
	13.716859	44.424665	90.938419	43.184374	178.547458
	13.445949	44.424665	90.780415	39.838286	175.043367
	13.593718	43.150374	91.254426	39.997624	174.402423
	13.963140	41.238935	92.676457	37.766899	171.682291
	13.790743	45.539671	91.728436	41.431661	178.699768
	13.987768	44.424665	87.778349	39.678949	171.881962
	13.618346	43.946806	91.412429	40.156961	175.516196
	13.741487	46.973249	93.150468	42.387686	182.511403
	13.790743	47.928968	89.990398	41.909674	179.829040
	13.864628	45.858244	92.360450	41.590999	179.809693
	13.667603	45.221098	92.834461	39.997624	178.053182
	13.815371	47.451109	91.728436	39.678949	178.858494
	13.766115	44.265379	89.358384	40.794311	174.418073
	13.692231	44.583952	91.096422	42.069011	177.749385
	13.667603	45.698957	90.622412	40.634974	176.956343
	13.692231	45.858244	91.886440	41.272324	179.017007
	13.396693	44.106093	91.412429	40.316299	175.834820
	13.716859	44.424665	94.414496	40.475636	179.314797
	13.593718	45.061811	91.412429	39.519611	175.993852
	13.766115	44.265379	91.254426	38.882261	174.402066
	13.815371	43.946806	90.780415	40.156961	174.884182
	13.790743	44.743238	90.622412	41.909674	177.275324
	13.642974	45.061811	89.516387	39.360274	173.938472
	13.716859	44.424665	91.728436	39.519611	175.672713
	13.347437	44.265379	92.202447	39.041599	175.509424
	13.913884	46.813963	91.886440	40.794311	179.494713
	13.618346	45.380384	91.096422	42.706361	179.183168
	13.839999	45.539671	91.570433	40.794311	177.904415
	13.593718	44.106093	90.938419	38.722924	173.767435
	13.987768	45.380384	93.150468	39.678949	178.209801
	13.716859	43.946806	91.886440	40.794311	176.627557
	13.889256	46.336103	92.992464	44.777749	184.106316
	13.495206	46.813963	93.150468	41.909674	181.874104
	13.692231	41.398222	86.672324	36.651536	164.722082
	13.642974	46.813963	93.150468	42.865699	182.830129
	13.913884	44.265379	91.412429	39.997624	175.675432
	13.495206	47.610396	94.098489	42.387686	184.096570
	14.110909	45.380384	92.360450	40.634974	178.375808
	13.175040	45.061811	89.674391	39.838286	174.574488
	13.938512	45.858244	92.044443	41.112986	179.015673
	13.495206	46.495390	92.676457	41.590999	180.762846
	13.569090	45.061811	91.728436	41.750336	178.540584
	13.421321	45.061811	92.518454	40.316299	177.896564
	13.544462	45.380384	93.308471	40.475636	179.164491
	13.273552	46.176817	92.992464	43.503049	182.672330
	13.642974	44.424665	89.990398	40.156961	174.572024
	13.396693	45.858244	92.044443	40.156961	178.059648
	13.790743	46.336103	91.728436	39.678949	177.743488
	13.396693	43.787519	91.096422	40.156961	175.040902
	13.889256	43.628233	90.464408	41.431661	175.524302
	13.421321	46.813963	92.992464	40.156961	179.963388
	13.593718	44.743238	91.886440	40.475636	177.105314
	13.519834	45.061811	90.464408	40.794311	176.320531
	13.741487	46.495390	91.254426	40.634974	178.384789
	13.322809	46.495390	92.202447	41.750336	180.448172
	13.716859	45.539671	90.938419	40.316299	176.794388
	13.741487	45.858244	91.412429	40.794311	178.064984
	14.209421	44.265379	91.728436	41.750336	177.744151
	13.593718	46.813963	91.096422	39.997624	177.908009
	13.569090	43.309660	90.464408	39.360274	173.134342
	13.864628	45.380384	91.570433	39.519611	176.470428
	13.716859	44.743238	91.412429	40.794311	176.949978
	13.642974	44.265379	92.518454	42.228349	179.012181
	13.790743	44.265379	90.464408	39.041599	173.771386
	13.618346	50.158980	94.572499	41.750336	186.481815
	13.593718	44.106093	91.096422	38.722924	173.925438
	13.716859	44.902525	89.674391	40.156961	174.733876
	13.790743	46.973249	92.202447	43.184374	182.360070
	13.741487	44.902525	91.096422	39.838286	175.837233
	13.642974	42.991087	93.308471	38.722924	175.022481
	13.913884	41.238935	88.568366	36.810874	166.618175
	13.618346	49.681120	92.676457	42.228349	184.585926
	14.037025	43.946806	90.306405	40.953649	175.206859
	13.642974	44.902525	91.254426	40.156961	176.313911
	13.864628	44.583952	89.674391	39.997624	174.255966
	14.283306	44.743238	89.832394	38.563586	173.139219
	13.864628	44.424665	92.834461	40.475636	177.734762
	13.667603	44.106093	90.938419	39.997624	175.042135
	14.061653	47.132536	91.886440	40.953649	179.972624
	13.667603	45.061811	91.412429	40.634974	177.109214
	14.110909	42.991087	89.990398	40.316299	173.297783
	13.593718	41.716795	90.780415	38.404249	170.901458
	14.037025	43.787519	90.622412	38.722924	173.132855
	13.519834	43.150374	90.464408	39.997624	173.612405
	14.061653	38.849638	88.568366	37.288886	164.706890
	13.298181	44.743238	89.200380	42.228349	176.171967
	14.012396	45.061811	92.834461	41.431661	179.327933
	13.322809	43.787519	91.412429	40.316299	175.516247
	13.667603	44.265379	91.412429	39.360274	175.038082
	13.938512	43.628233	90.306405	38.882261	172.816899
	14.061653	44.265379	92.992464	39.997624	177.255467
	13.224296	44.265379	91.254426	38.722924	174.242728
	13.987768	46.495390	88.884373	39.200936	174.580699
	13.273552	45.858244	92.202447	43.821724	181.882414
	13.864628	44.106093	90.464408	39.360274	173.930774
	13.150412	46.017530	91.886440	38.563586	176.467556
	13.618346	45.858244	92.360450	40.316299	178.534993
	13.224296	45.539671	91.570433	41.272324	178.382427
	13.790743	43.628233	91.412429	41.909674	176.950335
	13.125784	46.495390	92.044443	41.909674	180.449506
	13.741487	45.221098	90.780415	38.563586	174.565099
	13.347437	42.513227	90.622412	38.404249	171.539888
	13.667603	44.265379	94.414496	40.316299	178.996173
	13.175040	46.813963	92.676457	43.662386	183.152806
	13.495206	45.380384	92.992464	43.025036	181.397885
	13.150412	46.973249	94.414496	44.937086	186.324831
	13.248924	49.521833	96.468541	48.123836	194.114211
	13.101155	48.406828	97.574566	51.469924	197.451317
	12.657849	48.884687	101.366650	57.843424	208.094761
	12.731733	52.548277	108.476807	63.579574	224.604658
	12.066774	54.619002	109.266825	67.403673	231.289500
	11.771236	53.503996	110.688856	73.139824	237.332676
	11.549583	57.964018	117.325003	82.222061	257.511082
	11.081649	59.716169	119.853059	87.161524	266.730752
	10.367433	61.946180	124.593164	91.144961	277.684306
	10.367433	59.556883	123.645143	94.172374	277.374399
	9.702473	64.813338	129.491273	102.776599	297.081209
	9.899498	64.972624	127.437227	101.183223	293.593074
	8.889745	63.379759	126.331203	102.457924	292.168885
	8.914373	60.353316	125.225178	99.908524	285.487017
	8.421810	61.786894	123.487140	99.111836	284.385870
	8.840489	57.804731	121.591098	99.271174	278.667002
	7.855363	57.964018	121.591098	95.447074	275.002189
	8.175529	54.778288	116.692989	89.232911	260.704188
	7.264288	54.619002	116.692989	89.551586	260.863577
	7.658338	54.141142	114.006930	87.958211	256.106283
	6.870238	46.813963	106.422762	79.672661	232.909386
	7.732223	46.973249	105.790748	75.529886	228.293883
	6.623957	46.495390	103.736702	73.139824	223.371916
	6.968750	43.468946	100.892639	71.387111	215.748696
	6.328419	43.628233	98.364583	68.678374	210.671190
	6.796354	40.920362	94.572499	62.145536	197.638397
	6.106766	38.849638	92.202447	59.277461	190.329546
	6.648585	36.301054	89.832394	56.250049	182.383497
	6.057510	35.982481	88.094356	55.134686	179.211523
	6.550072	34.071043	89.042377	51.469924	174.583343
	5.761972	29.929594	83.512254	46.689799	160.131647
	6.648585	29.770307	81.300205	45.255761	156.326274
	6.032881	29.929594	80.510188	44.140399	154.580180
	6.599328	28.496015	78.772149	44.299736	151.567901
	5.638831	27.221723	79.720170	40.953649	147.895542
	6.771725	28.177443	78.614146	39.678949	146.470537
	5.860485	29.451735	77.982132	37.926236	145.360102
	6.402303	25.788145	76.086090	38.244911	140.119146
	5.958997	25.788145	74.980065	40.634974	141.403184
	6.353047	28.814589	75.612079	38.404249	142.830916
	5.835856	26.425291	77.508121	41.431661	145.365073
	6.500816	27.381010	78.614146	44.459074	150.454229
	5.712716	29.770307	80.036177	45.574436	155.380921
	6.180650	28.814589	83.670258	47.008474	159.493320
	5.885113	29.611021	83.038244	50.991911	163.641176
	5.958997	31.522459	83.828261	55.294024	170.644744
	5.244781	33.911756	89.674391	63.579574	187.165720
	5.712716	33.752470	91.096422	64.535599	189.384491
	5.220153	35.663908	95.362517	68.519036	199.545461
	5.663459	35.345335	94.730503	69.634399	199.710236
	4.899987	38.371778	96.310537	74.095849	208.778165
	5.220153	37.575346	98.364583	78.557299	214.497228
	4.432053	38.053205	98.048576	78.238624	214.340405
	5.121641	40.283216	98.838594	79.831998	218.953808
	4.579822	40.283216	101.208646	81.425374	222.917236
	5.097012	37.575346	100.576632	80.628686	218.780664
	4.505937	39.008924	100.102621	83.018749	222.130294
	4.629078	37.256773	96.784548	79.035311	213.076632
	4.161143	34.230329	96.468541	77.919949	208.618819
	4.752219	35.026762	95.994531	77.282599	208.303891
	4.087259	35.504621	95.836527	75.689223	207.030372
	4.678334	34.071043	92.518454	73.777174	200.366670
	4.210400	30.885313	91.728436	69.634399	192.248148
	4.530565	31.522459	89.990398	68.678374	190.191230
	4.136515	35.823194	88.884373	69.634399	194.341966
	4.727590	29.133161	86.672324	64.376261	180.181747
	3.914862	29.292448	85.250293	61.826861	176.369602
	4.801475	29.929594	82.564233	59.277461	171.771288
	3.988747	27.540297	83.986265	60.552161	172.078722
	4.653706	26.266004	83.986265	60.074149	170.326417
	3.840978	27.699583	83.196247	58.640111	169.535941
	4.407425	26.425291	80.668191	58.002761	165.096243
	3.643953	26.425291	82.880240	60.392824	169.698355
	4.161143	26.266004	81.142202	58.640111	166.048317
	3.446928	28.336729	86.356317	60.552161	175.245207
	4.333540	25.628858	83.196247	59.277461	168.102567
	3.717837	25.947432	85.092289	61.030174	172.069894
	4.333540	26.903150	84.144268	63.579574	174.626992
	3.767093	28.496015	83.196247	63.898249	175.590511
	4.432053	27.858870	86.830328	65.172949	179.862145
	3.988747	28.177443	87.146335	65.650961	180.974738
	4.678334	30.566740	90.780415	68.678374	190.025529
	3.668581	30.566740	89.832394	73.139824	193.538958
	4.284284	28.336729	88.094356	69.793736	186.224821
	3.373043	29.451735	89.358384	70.112411	188.922529
	4.111887	28.018156	87.462342	69.634399	185.114896
	3.446928	28.018156	88.410363	72.183799	188.612317
	4.259656	28.018156	89.358384	73.936511	191.313051
	3.643953	29.929594	91.412429	72.343136	193.685159
	3.988747	27.699583	88.410363	69.793736	185.903682
	3.397671	28.336729	87.936352	71.387111	187.660192
	4.333540	28.496015	88.568366	71.068436	188.132818
	3.299159	31.681745	89.358384	74.414524	195.454653
	4.038003	27.858870	89.674391	69.953074	187.486334
	3.200646	28.336729	88.568366	69.793736	186.698831
	3.988747	27.540297	87.304338	68.997049	183.841683
	3.348415	26.584578	86.356317	68.519036	181.459931
	3.964118	25.310286	83.196247	68.519036	177.025569
	3.274531	26.584578	86.198314	67.403673	180.186565
	3.988747	25.788145	84.460275	66.128974	176.377393
	3.274531	27.381010	86.356317	69.953074	183.690401
	3.988747	25.628858	85.724303	66.766323	178.119485
	3.028249	25.788145	86.356317	65.810299	177.954761
	3.594696	24.832426	84.776282	65.810299	175.419007
	2.855852	24.354567	83.512254	66.925661	174.792482
	3.668581	26.266004	85.882306	69.315723	181.464034
	2.905109	26.903150	84.618279	66.766323	178.287753
	3.496184	26.266004	87.304338	68.678374	182.248716
	2.905109	29.292448	88.884373	70.590423	188.767245
	3.299159	26.903150	85.724303	68.837711	181.465165
	2.978993	28.496015	88.094356	73.299161	189.889532
	3.225274	28.177443	87.620345	71.227774	187.025561
	2.708084	25.150999	85.724303	68.837711	179.713013
	3.225274	26.743864	86.672324	69.156386	182.572574
	2.757340	25.788145	89.990398	70.271749	186.050291
	3.299159	25.150999	85.724303	70.749761	181.625063
	2.831224	25.628858	84.144268	68.678374	178.451500
	3.471556	28.018156	85.882306	69.156386	183.056849
	2.757340	26.903150	86.514321	71.705786	185.123257
	3.299159	26.425291	85.408296	70.112411	181.945998
	2.658827	28.655302	86.988331	70.431086	186.074719
	3.643953	25.628858	86.988331	68.678374	181.295563
	2.683456	26.425291	86.672324	70.271749	183.369364
	3.249903	29.451735	86.514321	74.573861	190.539916
	2.560315	25.788145	84.934286	69.156386	179.878817
	3.102134	27.062437	85.882306	69.793736	182.738480
	2.289405	25.947432	85.566300	69.634399	181.148130
	3.299159	27.062437	86.672324	70.431086	184.165847
	2.584943	26.425291	89.674391	72.183799	188.283480
	3.200646	25.947432	86.198314	69.475061	181.620806
	2.683456	26.743864	85.882306	71.068436	183.694607
	3.028249	26.584578	86.356317	72.980486	185.921380
	2.535687	25.469572	84.776282	70.271749	180.517603
	3.052878	24.673140	83.196247	67.563011	175.432398
	2.535687	27.381010	85.566300	69.475061	182.422371
	3.126762	25.788145	86.988331	70.431086	183.207562
	2.289405	25.469572	85.724303	71.865123	183.058999
	3.077506	26.425291	84.302272	70.112411	180.839974
	2.511059	25.788145	85.092289	68.519036	179.399470
	3.028249	25.628858	85.724303	69.315723	180.668885
	2.683456	25.788145	86.672324	70.749761	183.210230
	3.151390	25.628858	85.092289	72.502473	183.223621
	3.003621	24.195280	84.460275	69.953074	178.608629
	3.052878	24.991712	85.882306	69.793736	180.667755
	2.978993	23.239561	81.458208	66.925661	171.623430
	3.052878	25.788145	83.038244	68.519036	177.345425
	2.954365	26.106718	85.882306	72.502473	184.491498
	2.855852	26.106718	88.410363	70.112411	184.629492
	2.954365	26.903150	84.618279	69.315723	180.837153
	3.028249	26.266004	85.092289	70.749761	182.108055
	2.658827	25.310286	84.776282	70.749761	180.836329
	2.905109	26.106718	85.882306	72.502473	184.491498
	2.880481	24.513853	83.670258	68.997049	177.181159
	2.954365	25.469572	85.724303	70.590423	181.784299
	2.634199	25.788145	87.462342	71.387111	184.637598
	2.855852	23.876707	83.828261	68.678374	176.383342
	3.249903	25.310286	82.880240	69.156386	177.346912
	3.028249	24.035993	83.986265	68.519036	176.541294
	3.102134	24.513853	83.828261	69.315723	177.657837
	3.126762	26.266004	86.040310	70.909098	183.215413
	3.151390	24.673140	84.460275	69.634399	178.767813
	2.757340	24.673140	84.776282	68.041024	177.490445
	2.978993	27.062437	85.408296	69.634399	182.105132
	2.855852	24.832426	83.196247	69.953074	177.981746
	3.052878	23.876707	83.512254	70.112411	177.501372
	2.511059	26.584578	85.408296	70.271749	182.264622
	3.077506	24.195280	83.512254	69.315723	177.023257
	2.781968	23.717420	84.618279	70.431086	178.766785
	3.200646	21.965269	83.828261	67.722348	173.515878
	2.732712	24.513853	84.776282	68.837711	178.127846
	3.126762	21.646696	82.722237	67.722348	172.091281
	2.708084	20.213117	81.774216	67.084999	169.072332
	2.880481	25.947432	85.408296	72.502473	183.858201
	2.535687	24.513853	83.986265	68.678374	177.178491
	3.249903	22.920988	83.828261	67.084999	173.834248
	2.117009	23.558134	84.776282	67.881686	176.216102
	2.855852	26.425291	83.512254	68.519036	178.456581
	2.190893	24.673140	83.196247	72.024461	179.893847
	2.511059	20.690977	81.142202	66.128974	167.962152
	2.018496	26.743864	86.988331	71.865123	185.597318
	2.609571	24.832426	87.462342	69.634399	181.929166
	1.821471	23.239561	84.302272	69.634399	177.176231
	2.658827	23.239561	83.670258	71.387111	178.296930
	2.067752	23.398847	83.986265	68.678374	176.063486
	2.338662	25.150999	84.776282	69.793736	179.721017
	2.264777	23.080275	83.512254	69.634399	176.226927
	2.634199	23.717420	84.460275	69.315723	177.493419
	2.314034	24.991712	85.566300	69.953074	180.511086
	2.683456	23.398847	84.618279	68.678374	176.695500
	1.993868	22.283842	82.406230	68.359698	173.049770
	2.757340	23.239561	83.196247	69.315723	175.751531
	2.166265	24.832426	85.092289	70.112411	180.037126
	2.437174	21.328123	84.776282	69.475061	175.579466
	2.240149	23.558134	85.724303	69.953074	179.235511
	2.240149	25.788145	85.566300	71.387111	182.741556
	2.338662	20.850264	83.670258	69.634399	174.154920
	2.387918	23.876707	84.302272	71.068436	179.247415
	2.461802	22.920988	83.196247	66.925661	173.042896
	2.387918	25.469572	85.092289	68.997049	179.558910
	2.535687	21.009550	84.460275	67.722348	173.192173
	2.387918	23.876707	85.408296	71.227774	180.512777
	2.560315	26.425291	85.882306	69.156386	181.463983
	2.363290	22.124555	83.196247	68.200361	173.521163
	2.511059	22.920988	82.564233	69.953074	175.438294
	2.289405	25.628858	83.512254	69.156386	178.297499
	2.708084	25.628858	86.198314	71.068436	182.895608
	2.387918	22.761702	84.618279	67.881686	175.261666
	2.387918	23.717420	85.250293	70.431086	179.398799
	2.387918	24.673140	84.302272	70.749761	179.725172
	2.486431	22.124555	83.670258	68.678374	174.473186
	2.289405	21.168837	81.932219	66.766323	169.867379
	2.683456	23.717420	83.828261	68.837711	176.383393
	2.363290	23.717420	83.038244	68.041024	174.796688
	2.806596	24.195280	87.620345	72.183799	183.999424
	2.190893	26.425291	86.988331	72.502473	185.916095
	2.609571	24.035993	82.248226	68.041024	174.325243
	2.240149	22.124555	83.038244	67.403673	172.566473
	2.412546	22.602415	83.196247	69.156386	174.955048
	2.190893	23.239561	83.670258	71.546448	178.456267
	2.806596	21.487409	82.406230	66.766323	170.659963
	1.969240	22.283842	86.356317	68.997049	177.637208
	2.634199	22.602415	84.618279	69.156386	176.377080
	1.796843	22.602415	83.038244	69.156386	174.797044
	2.215521	23.398847	85.250293	72.183799	180.832939
	1.673702	23.239561	84.776282	69.953074	177.968917
	2.511059	21.965269	82.564233	68.200361	172.729863
	1.870727	21.646696	82.406230	69.475061	173.527987
	2.560315	21.805983	84.618279	68.837711	175.261972
	1.722958	23.558134	84.302272	69.156386	177.016792
	2.461802	23.558134	79.720170	66.447648	169.725953
	1.624446	22.761702	83.828261	69.953074	176.543036
	2.166265	22.920988	83.038244	71.705786	177.665018
	1.821471	24.673140	81.458208	68.041024	174.172371
	2.387918	23.558134	84.934286	69.475061	177.967481
	1.821471	23.558134	85.724303	70.590423	179.872861
	2.289405	23.717420	84.460275	69.634399	177.812094
	2.314034	22.283842	81.142202	69.475061	172.901105
	2.067752	22.283842	83.828261	69.156386	175.268489
	2.264777	22.283842	83.512254	69.315723	175.111819
	2.117009	21.965269	84.302272	68.997049	175.264589
	2.289405	24.991712	84.460275	70.431086	179.883074
	2.018496	22.124555	82.880240	70.749761	175.754557
	1.919983	23.558134	84.776282	70.271749	178.606165
	1.919983	24.832426	83.038244	70.112411	177.983080
	2.190893	23.398847	83.670258	70.749761	177.818866
	1.919983	22.602415	83.828261	69.475061	175.905737
	2.215521	22.602415	86.672324	68.359698	177.634437
	1.993868	23.876707	84.618279	69.475061	177.970047
	2.314034	23.717420	85.408296	71.705786	180.831502
	1.993868	22.283842	83.828261	72.502473	178.614576
	2.486431	23.080275	83.196247	69.315723	175.592245
	2.018496	23.717420	83.828261	69.315723	176.861405
	2.461802	19.098112	80.984198	65.969636	166.051946
	2.092380	23.080275	85.724303	70.271749	179.076326
	2.363290	24.513853	82.248226	69.634399	176.396478
	2.043124	22.602415	82.722237	69.156386	174.481038
	2.215521	24.832426	85.408296	70.431086	180.671808
	1.747587	23.717420	83.354251	68.519036	175.590707
	2.363290	22.761702	84.460275	69.475061	176.697038
	1.575190	24.195280	85.092289	72.343136	181.630705
	2.511059	23.398847	84.460275	69.953074	177.812196
	1.895355	23.080275	83.196247	69.793736	176.070258
	2.338662	23.876707	82.880240	72.502473	179.259421
	1.698330	21.646696	83.038244	69.156386	173.841326
	2.264777	22.920988	83.038244	68.519036	174.478268
	1.624446	24.035993	84.144268	70.749761	178.930023
	2.190893	21.965269	83.038244	69.315723	174.319236
	1.476677	22.761702	84.302272	72.024461	179.088434
	2.338662	23.558134	84.144268	69.634399	177.336801
	1.525933	20.850264	80.984198	68.359698	170.194160
	2.363290	24.195280	84.460275	70.271749	178.927303
	1.525933	26.106718	84.776282	71.705786	182.588786
	1.944612	23.876707	86.356317	74.573861	184.806885
	1.501305	22.761702	83.828261	69.315723	175.905686
	2.117009	23.398847	83.038244	69.953074	176.390165
	1.969240	23.558134	84.302272	70.749761	178.610167
	1.821471	21.487409	81.616212	69.475061	172.578683
	1.796843	20.531690	81.774216	68.678374	170.984280
	1.919983	23.080275	84.460275	69.634399	177.174948
	1.895355	21.487409	86.356317	69.953074	177.796800
	1.944612	24.673140	86.514321	73.936511	185.123971
	2.018496	23.558134	84.144268	70.431086	178.133488
	2.117009	24.991712	82.722237	68.200361	175.914310
	2.240149	22.283842	82.564233	68.359698	173.207773
	2.289405	23.239561	82.880240	70.271749	176.391550
	2.560315	22.124555	81.458208	69.793736	173.376500
	1.969240	22.124555	84.460275	69.315723	175.900554
	2.092380	24.513853	85.092289	70.271749	179.877891
	1.944612	19.735258	80.036177	66.288311	166.059746
	2.338662	25.310286	85.566300	71.865123	182.741709
	1.993868	22.761702	84.144268	72.502473	179.408443
	2.412546	21.646696	83.828261	68.837711	174.312668
	1.919983	23.558134	84.144268	69.315723	177.018125
	2.363290	24.673140	84.144268	69.315723	178.133131
	1.796843	22.283842	83.354251	69.793736	175.431828
	2.387918	23.876707	82.722237	71.865123	178.464067
	1.772215	24.513853	84.460275	69.315723	178.289851
	2.190893	22.124555	83.354251	70.112411	175.591217
	1.575190	21.965269	82.406230	70.909098	175.280597
	2.437174	23.717420	83.512254	69.793736	177.023411
	1.599818	22.761702	85.408296	69.475061	177.645059
	2.264777	24.035993	85.092289	70.112411	179.240694
	1.649074	21.646696	80.036177	67.881686	169.564559
	2.166265	23.080275	83.670258	72.343136	179.093668
	1.624446	23.080275	83.354251	69.793736	176.228261
	2.289405	21.646696	83.828261	69.634399	175.109355
	1.575190	22.283842	83.512254	68.997049	174.793145
	2.067752	23.558134	85.566300	72.183799	181.308232
	1.452049	18.938826	81.142202	68.678374	168.759401
	2.067752	21.487409	80.352184	68.359698	170.199292
	1.624446	23.558134	81.300205	68.519036	173.377375
	1.969240	22.761702	83.986265	69.634399	176.382364
	1.673702	22.283842	85.724303	69.793736	177.801881
	1.919983	23.558134	83.670258	71.705786	178.934178
	1.525933	21.805983	81.774216	68.837711	172.417909
	2.043124	21.965269	83.196247	69.315723	174.477239
	1.821471	21.168837	82.406230	69.953074	173.528140
	1.993868	23.398847	83.038244	70.271749	176.708840
	1.821471	22.283842	83.512254	68.837711	174.633807
	2.018496	20.690977	83.986265	67.881686	172.558928
	2.387918	23.239561	84.144268	70.749761	178.133590
	2.067752	28.018156	86.356317	75.051873	189.426346
	2.215521	22.124555	82.880240	70.431086	175.435882
	1.944612	24.513853	84.776282	71.068436	180.358571
	2.240149	23.717420	84.460275	69.315723	177.493419
	2.166265	24.832426	85.724303	72.343136	182.899865
	2.215521	21.965269	83.986265	72.024461	177.975995
	2.560315	22.443129	82.090223	68.359698	172.893050
	2.190893	23.398847	82.248226	70.271749	175.918822
	2.043124	23.080275	83.670258	73.139824	179.890355
	2.511059	23.080275	83.038244	69.953074	176.071592
	1.944612	22.602415	82.406230	68.519036	173.527681
	2.338662	21.328123	83.354251	68.519036	173.201410
	1.969240	21.328123	84.934286	69.953074	176.215482
	2.240149	25.310286	86.198314	74.733199	186.241798
	1.624446	20.690977	82.090223	68.837711	171.618911
	2.092380	19.575972	80.826194	67.244336	167.646502
	1.796843	24.035993	85.092289	70.590423	179.718706
	1.993868	25.947432	85.092289	70.431086	181.470807
	1.378165	21.646696	82.722237	70.749761	175.118694
	2.092380	22.124555	81.774216	69.315723	173.214495
	1.402793	23.558134	84.144268	69.156386	176.858788
	2.043124	22.602415	82.880240	68.678374	174.161029
	1.279652	23.080275	84.302272	70.590423	177.972970
	2.190893	21.009550	83.038244	72.024461	176.072255
	1.328908	23.876707	85.408296	70.909098	180.194101
	1.895355	23.398847	83.828261	69.156386	176.383494
	1.525933	21.328123	81.458208	68.997049	171.783380
	1.944612	22.602415	83.196247	69.953074	175.751735
	1.747587	24.035993	82.880240	71.865123	178.781357
	1.944612	24.354567	87.462342	71.068436	182.885344
	1.378165	21.487409	83.038244	68.519036	173.044689
	1.747587	23.558134	84.618279	69.315723	177.492136
	1.649074	22.761702	83.670258	70.749761	177.181720
	1.919983	21.487409	81.458208	69.156386	172.102004
	1.378165	22.124555	83.354251	69.156386	174.635192
	1.796843	22.602415	83.038244	70.112411	175.753069
	1.624446	21.487409	84.460275	71.865123	177.812808
	1.846099	21.646696	83.670258	69.793736	175.110690
	1.501305	23.239561	85.724303	69.953074	178.916938
	1.772215	21.009550	83.828261	69.315723	174.153534
	1.550562	21.009550	82.564233	70.271749	173.845532
	1.796843	22.761702	83.196247	71.705786	177.663735
	1.870727	21.965269	83.512254	70.271749	175.749272
	1.821471	21.805983	82.406230	70.271749	174.483961
	2.437174	21.646696	83.038244	69.315723	174.000663
	1.846099	25.788145	85.882306	70.909098	182.579550
	1.846099	22.283842	83.196247	69.793736	175.273825
	1.747587	23.717420	83.986265	70.431086	178.134771
	1.624446	23.398847	83.038244	70.271749	176.708840
	2.092380	21.646696	82.564233	69.793736	174.004665
	1.846099	23.558134	86.040310	71.227774	180.826218
	1.747587	23.239561	85.408296	72.343136	180.990993
	1.575190	22.283842	82.090223	68.997049	173.371113
	1.821471	23.080275	83.512254	69.634399	176.226927
	1.673702	20.372404	81.932219	69.793736	172.098359
	1.846099	22.443129	83.038244	69.475061	174.956433
	1.575190	23.558134	83.196247	67.722348	174.476729
	1.796843	19.416685	84.618279	67.881686	171.916650
	1.575190	21.965269	83.196247	69.793736	174.955252
	1.846099	20.690977	78.930153	70.112411	169.733541
	1.550562	21.965269	82.880240	69.475061	174.320570
	1.698330	21.487409	83.986265	69.156386	174.630060
	1.698330	20.690977	86.514321	68.837711	176.043009
	1.993868	23.398847	86.514321	70.431086	180.344254
	1.969240	19.575972	82.248226	70.749761	172.573959
	1.722958	22.124555	83.828261	69.315723	175.268540
	1.747587	22.761702	83.038244	69.315723	175.115668
	1.895355	25.150999	83.196247	69.953074	178.300320
	1.870727	21.168837	82.880240	69.634399	173.683475
	1.993868	22.283842	84.460275	69.953074	176.697190
	1.846099	25.788145	83.828261	69.156386	178.772792
	1.747587	22.920988	84.776282	70.909098	178.606369
	1.969240	21.168837	82.248226	70.909098	174.326161
	1.846099	25.469572	83.038244	70.909098	179.416914
	1.747587	23.080275	83.670258	70.112411	176.862943
	1.747587	22.920988	83.512254	69.315723	175.748965
	1.993868	24.832426	86.040310	72.502473	183.375209
	1.944612	22.124555	83.038244	71.068436	176.231235
	2.018496	22.602415	84.776282	70.590423	177.969121
	1.772215	21.009550	82.564233	68.041024	171.614807
	1.673702	24.354567	84.934286	71.227774	180.516626
	1.846099	23.876707	81.932219	69.634399	175.443325
	1.895355	21.646696	83.512254	71.705786	176.864736
	1.772215	21.168837	83.670258	68.519036	173.358130
	2.043124	22.920988	83.196247	69.634399	175.751633
	1.747587	22.920988	82.722237	69.953074	175.596298
	1.772215	22.124555	83.196247	69.953074	175.273876
	1.870727	24.991712	85.408296	74.095849	184.495857
	2.043124	22.920988	84.302272	70.431086	177.654346
	1.772215	21.009550	83.512254	70.590423	175.112228
	2.117009	21.646696	83.354251	71.068436	176.069383
	1.525933	22.920988	83.354251	70.431086	176.706324
	2.264777	21.328123	81.300205	69.315723	171.944052
	1.919983	20.690977	82.406230	68.519036	171.616242
	1.993868	22.761702	83.196247	70.271749	176.229697
	1.870727	24.673140	83.670258	71.865123	180.208521
	2.560315	21.487409	83.828261	69.953074	175.268744
	1.722958	21.646696	83.828261	68.678374	174.153330
	2.067752	24.832426	83.038244	69.315723	177.186393
	1.673702	21.965269	81.932219	69.793736	173.691224
	2.067752	21.646696	83.038244	71.387111	176.072051
	1.796843	24.832426	83.354251	69.793736	177.980412
	1.870727	22.283842	84.144268	70.271749	176.699859
	1.698330	24.991712	86.040310	73.299161	184.331184
	2.043124	22.124555	83.828261	70.112411	176.065227
	1.624446	23.080275	83.828261	70.271749	177.180284
	1.895355	22.443129	81.774216	69.315723	173.533068
	1.624446	22.124555	83.196247	70.431086	175.751889
	2.018496	22.124555	83.512254	71.865123	177.501933
	1.673702	23.558134	86.356317	69.793736	179.708187
	2.215521	20.690977	82.090223	68.359698	171.140898
	1.772215	22.283842	82.406230	69.315723	174.005795
	1.944612	22.602415	82.722237	69.156386	174.481038
	1.476677	20.372404	80.984198	69.315723	170.672325
	1.870727	21.965269	82.248226	69.953074	174.166568
	1.624446	21.805983	83.670258	68.678374	174.154614
	2.043124	23.717420	86.356317	70.431086	180.504824
	1.673702	20.531690	83.828261	70.271749	174.631700
	1.969240	19.575972	81.142202	70.749761	171.467934
