LabVIEW Measurement	
Writer_Version	2
Reader_Version	2
Separator	Tab
Decimal_Separator	.
Multi_Headings	No
X_Columns	No
Time_Pref	Absolute
Operator	lvuser
Date	2021/05/25
Time	16:48:52.295547187
***End_of_Header***	
	
Channels	5					
Samples	2000	2000	2000	2000	2000	
Date	2021/05/25	2021/05/25	2021/05/25	2021/05/25	2021/05/25	
Time	16:48:52.2955472370585883856	16:48:52.295547187	16:48:52.295547187	16:48:52.295547187	16:48:52.295547187	
Y_Unit_Label	Volts	Volts	Volts	Volts	Volts	
X_Dimension	Time	Time	Time	Time	Time	
X0	0.0000000000000000E+0	0.0000000000000000E+0	0.0000000000000000E+0	0.0000000000000000E+0	0.0000000000000000E+0	
Delta_X	0.001000	0.001000	0.001000	0.001000	0.001000	
***End_of_Header***						
X_Value	cisnienieKomoraGorna	sila1	sila2	sila3	sila1 1	Comment
	7.116519	-1.449847	40.851309	5.262049	44.663511	Masa: 0.00 [kg]\09Pozycja Y 5.00 [m]\09Pozycja Z 2.71 [m]\0A
	7.412057	-1.131274	40.693306	5.102711	44.664743
	6.254535	-3.042711	40.851309	3.509336	41.317934
	7.535197	-3.042711	41.325320	3.031324	41.313932
	6.550072	-2.724139	41.483323	5.899399	44.658583
	7.485941	-4.794863	40.219295	2.712649	38.137081
	7.091891	-4.794863	40.219295	2.553311	37.977743
	7.387429	-4.157717	41.641327	2.712649	40.196258
	7.018007	-5.750582	40.219295	1.756624	36.225337
	7.288916	-4.476290	39.429278	4.465361	39.418349
	6.944122	-3.042711	40.535302	3.987349	41.479939
	6.968750	-3.201998	41.483323	3.509336	41.790661
	6.820982	-1.449847	40.219295	3.987349	42.756797
	6.845610	-3.042711	41.167316	3.668674	41.793278
	6.722469	-0.971987	41.009313	5.421386	45.458712
	6.574700	-1.449847	41.325320	5.102711	44.978184
	6.993379	-3.042711	40.061292	1.597286	38.615866
	6.328419	-4.157717	40.061292	1.437949	37.341523
	7.091891	-5.113436	42.589348	3.509336	40.985248
	5.983625	-4.794863	40.535302	4.943374	40.683813
	7.091891	-3.201998	40.535302	3.987349	41.320653
	6.500816	-3.679858	40.851309	2.871986	40.043438
	6.993379	-3.839144	40.693306	1.597286	38.451448
	6.279163	-2.724139	40.377299	3.668674	41.321834
	6.796354	-1.927706	41.641327	6.696086	46.409707
	6.476188	-1.290560	41.009313	3.828011	43.546764
	6.722469	-1.927706	42.273341	3.668674	44.014308
	6.500816	-1.449847	41.167316	1.756624	41.474093
	6.722469	-2.883425	41.167316	3.349999	41.633890
	6.722469	-7.502734	39.903288	3.031324	35.431878
	6.156022	-4.157717	40.693306	3.190661	39.726250
	6.771725	-3.042711	39.745285	4.306024	41.008597
	5.934369	-4.157717	40.219295	3.349999	39.411577
	6.623957	-3.042711	41.009313	2.712649	40.679250
	5.835856	-1.449847	42.589348	2.871986	44.011487
	6.574700	-3.679858	40.535302	3.190661	40.046106
	5.737344	-2.883425	39.903288	5.262049	42.281912
	6.500816	-3.679858	39.113271	2.553311	37.986724
	6.082138	-3.679858	41.009313	2.075299	39.404754
	6.229906	-3.839144	41.483323	3.031324	40.675503
	6.008253	-3.520571	40.061292	2.553311	39.094032
	6.426932	-4.476290	40.851309	5.262049	41.637068
	6.303791	-2.883425	42.747351	3.668674	43.532600
	6.353047	-4.317003	39.903288	1.119274	36.705558
	6.106766	-3.042711	39.745285	2.393974	39.096547
	6.525444	-3.201998	40.693306	1.756624	39.247931
	6.156022	-3.520571	40.377299	4.943374	41.800101
	6.402303	-1.131274	39.587281	3.190661	41.646669
	6.254535	-2.883425	39.587281	2.234636	38.938492
	6.451560	-2.564852	41.167316	3.190661	41.793125
	6.993379	-2.883425	42.589348	3.349999	43.055921
	6.796354	-1.609133	41.799330	5.740061	45.930258
	9.431564	-2.724139	41.641327	4.306024	43.223212
	11.229417	-2.564852	42.589348	2.553311	42.577807
	14.455703	-0.334841	41.957334	3.509336	45.131829
	16.672235	-2.405565	38.481257	1.597286	37.672977
	19.701495	1.258024	42.115337	3.349999	46.723360
	20.612736	-0.175555	42.589348	3.828011	46.241804
	23.371088	-0.494128	44.327386	5.899399	49.732657
	23.986791	1.417310	43.379365	4.784036	49.580712
	27.262333	4.603041	44.485390	5.580724	54.669154
	29.651262	3.328748	43.695372	3.509336	50.533457
	34.601518	6.673765	45.907421	5.899399	58.480585
	35.882181	9.700209	46.855442	10.042174	66.597824
	39.305493	11.611647	49.541502	8.926811	70.079959
	43.295252	16.071669	51.595547	10.360849	78.028064
	47.482036	18.301680	55.703638	12.113561	86.118879
	51.397911	20.850264	57.125670	12.432236	90.408169
	54.476429	27.062437	61.075757	17.531036	105.669230
	58.515445	30.726026	63.129802	17.371699	111.227528
	62.283551	37.097487	70.871974	22.151823	130.121284
	67.332322	45.539671	77.350118	25.816586	148.706375
	72.307208	52.707563	82.880240	29.162674	164.750477
	79.055322	64.972624	93.466475	37.766899	196.205997
	84.818311	77.078398	105.474741	45.096424	227.649562
	91.418657	89.343458	114.638944	55.612699	259.595101
	91.517170	103.042097	124.277157	61.986199	289.305453
	99.595207	114.510726	137.865458	69.953074	322.329257
	104.890263	132.510100	154.139819	84.612124	371.262042
	111.663010	148.757323	168.360134	96.562436	413.679892
	115.849799	163.411681	182.738452	107.716061	453.866194
	120.356755	182.207488	201.382865	120.144386	503.734739
	122.868829	196.224700	214.971166	126.836561	538.032427
	125.208506	210.560485	226.821429	135.600124	572.982037
	127.326529	229.993438	245.307838	150.896524	626.197800
	130.060257	247.355667	264.110255	164.440211	675.906132
	132.547704	258.824295	275.802514	170.335699	704.962507
	135.946393	272.204361	287.020762	178.302574	737.527696
	138.286071	283.991561	300.767067	186.428786	771.187414
	138.926404	295.619476	313.249343	194.873674	803.742493
	143.039311	305.813812	324.783599	202.840549	833.437959
	146.068579	315.211715	332.841777	207.780011	855.833504
	147.817180	324.768905	341.215963	213.675499	879.660367
	148.605282	336.078247	353.224229	222.757736	912.060212
	148.309744	345.316864	360.018379	226.741174	932.076417
	147.595527	354.077622	369.182582	235.823411	959.083615
	146.068579	363.316238	379.610813	243.949624	986.876675
	144.590887	370.484131	387.194981	250.960474	1008.639586
	143.999811	380.041321	398.887240	259.086686	1038.015247
	143.162452	388.324219	405.997398	265.141511	1059.463128
	142.103440	396.288544	411.527520	270.080973	1077.897038
	142.472863	406.005021	420.375716	279.481886	1105.862623
	140.034672	413.172913	428.117888	286.811411	1128.102212
	138.877147	420.977952	433.964017	291.272861	1146.214829
	134.641099	426.075119	439.968150	294.618949	1160.662218
	130.626705	432.924439	444.866259	296.690336	1174.481034
	124.346520	433.243012	448.184332	300.036424	1181.463768
	120.775434	434.676591	448.500339	301.151786	1184.328716
	114.051942	436.110169	450.712388	300.992449	1187.815006
	109.865153	432.605866	450.712388	297.646361	1180.964615
	104.643981	430.535142	447.710322	295.256299	1173.501762
	100.013886	427.827271	444.076241	293.184911	1165.088423
	95.703958	420.659379	437.282091	290.157498	1148.098968
	90.999979	415.880784	433.174000	283.305986	1132.360769
	91.098491	409.031464	427.643877	277.729174	1114.404515
	85.360130	400.907852	419.427695	272.152361	1092.487909
	80.065077	393.262100	410.263492	265.778861	1069.304453
	74.203576	380.678467	403.785349	260.998736	1045.462552
	68.514473	370.643417	390.987065	252.553849	1014.184331
	63.711984	360.130509	379.452810	246.817699	986.401017
	58.638585	350.254746	371.394631	240.284861	961.934238
	53.909981	336.715393	360.808397	230.405936	927.929726
	49.230634	325.883911	348.010113	222.279724	896.173748
	45.388644	313.459564	336.949868	214.153511	864.562943
	40.512272	301.353790	325.099606	209.532724	835.986119
	36.670282	288.133011	313.249343	197.741749	799.124102
	33.813418	276.027237	302.505105	190.412224	768.944565
	32.311101	261.532165	288.442794	182.126674	732.101632
	27.705640	250.541397	278.014563	174.956486	703.512445
	24.233072	236.046325	264.900272	166.192924	667.139521
	20.341827	224.099838	255.420062	157.907374	637.427273
	17.164798	210.719772	240.883740	148.347124	599.950635
	13.347437	198.613998	230.139502	141.176936	569.930436
	11.130905	186.348937	219.237261	131.616686	537.202884
	8.471067	175.836028	208.177016	125.561861	509.574905
	6.500816	163.252395	195.852743	117.435648	476.540786
	4.579822	153.854491	187.162550	110.424799	451.441840
	2.905109	142.067290	178.156351	104.051299	424.274939
	1.919983	129.961516	168.676141	97.199786	395.837443
	1.476677	121.360045	160.143952	92.419661	373.923658
	0.663949	111.962142	151.137752	85.249474	348.349367
	-0.321176	101.608519	144.185598	79.513323	325.307441
	0.023617	93.166335	134.231378	73.139824	300.537536
	-0.321176	84.724150	126.173199	66.766323	277.663673
	1.378165	78.193404	119.853059	62.145536	260.191999
	1.378165	72.777663	115.270958	59.277461	247.326081
	2.683456	62.424040	109.424828	54.656674	226.505542
	2.314034	58.601164	103.736702	51.469924	213.807790
	2.855852	52.548277	98.996597	47.327149	198.872023
	2.240149	46.336103	96.310537	43.503049	186.149689
	1.969240	39.964643	89.832394	40.634974	170.432011
	1.599818	38.531065	87.146335	41.750336	167.427736
	1.008743	34.867475	83.828261	37.448224	156.143960
	1.378165	31.522459	81.774216	36.014186	149.310861
	0.910230	29.292448	81.616212	32.668099	143.576759
	2.043124	25.469572	76.402096	30.437373	132.309042
	2.067752	19.735258	72.768016	27.887974	120.391248
	2.831224	18.938826	70.397964	27.569299	116.906088
	2.708084	14.956663	66.447876	25.975924	107.380463
	2.929737	14.000944	65.025845	23.267186	102.293975
	2.067752	12.248793	63.129802	19.921099	95.299693
	1.452049	12.885939	63.287806	21.036461	97.210206
	0.959486	10.655928	62.497789	19.921099	93.074815
	0.663949	11.133787	59.179715	20.239773	90.553276
	1.057999	7.788771	56.809663	17.212361	81.810794
	1.057999	8.107344	56.019645	15.300311	79.427300
	1.870727	7.629484	57.441677	16.256336	81.327497
	1.575190	2.532316	51.911554	13.388261	67.832131
	2.658827	1.258024	50.489523	13.228924	64.976470
	2.461802	1.576597	50.173516	10.838861	62.588974
	2.929737	0.302305	51.121537	9.245486	60.669328
	2.387918	-0.016268	47.803463	9.086149	56.873344
	2.141637	1.258024	46.855442	8.767474	56.880940
	1.476677	1.258024	48.277474	11.157536	60.693034
	1.501305	5.399473	48.909488	10.679524	64.988484
	1.328908	1.258024	45.749418	8.608136	55.615578
	1.525933	-1.449847	44.327386	6.377411	49.254951
	1.969240	-2.086993	43.063358	4.943374	45.919739
	1.649074	-3.201998	42.431344	3.190661	42.420007
	2.289405	-4.476290	41.483323	3.509336	40.516369
	1.796843	-2.883425	40.061292	5.102711	42.280577
	2.609571	-4.157717	38.481257	1.119274	35.442813
	1.575190	-4.157717	39.271274	0.641261	35.754818
	2.314034	-2.405565	40.377299	0.322586	38.294319
	1.304280	-4.635576	37.533236	0.322586	33.220245
	1.796843	-5.272723	38.007246	3.190661	35.925185
	1.624446	-3.201998	40.061292	2.234636	39.093930
	1.747587	-3.679858	38.323253	1.756624	36.400019
	1.870727	-3.839144	37.533236	0.641261	34.335353
	1.870727	-3.520571	37.533236	-0.314764	33.697901
	2.190893	-2.883425	37.375232	-0.792777	33.699031
	1.673702	-2.564852	41.641327	0.959936	40.036411
	2.117009	-0.334841	36.901222	0.959936	37.526317
	1.772215	-4.794863	34.215162	-1.908139	27.512160
	2.264777	-2.724139	37.533236	-1.270789	33.538308
	1.402793	-4.954149	35.005180	-2.704827	27.346204
	2.338662	-6.547015	32.793131	-3.501514	22.744602
	1.649074	-4.635576	34.689173	0.322586	30.376182
	2.067752	-7.184160	32.477124	-4.776214	20.516749
	2.043124	-4.317003	36.427211	-3.342177	28.768031
	1.895355	-5.272723	33.267141	-4.616877	23.377542
	2.190893	-0.971987	35.953201	-1.270789	33.710425
	2.412546	-8.458452	32.003113	-5.413564	18.131097
	1.772215	-3.520571	32.319120	-4.776214	24.022335
	1.919983	-5.272723	30.739085	-5.254227	20.212136
	1.796843	-5.432009	31.845110	-5.413564	20.999537
	1.698330	-6.865588	32.477124	-6.050914	19.560622
	2.166265	-6.387728	30.581082	-1.908139	22.285215
	1.328908	-5.272723	32.635127	-4.138864	23.223541
	2.141637	-4.635576	30.739085	-5.254227	20.849282
	2.018496	-1.768420	33.425145	-4.138864	27.517861
	2.683456	-5.113436	33.583148	-6.688264	21.781448
	2.190893	-2.405565	30.581082	-6.210252	21.965265
	2.880481	-5.432009	31.055092	-6.210252	19.412832
	2.289405	-4.157717	32.951134	-1.589464	27.203953
	3.028249	-5.591295	32.477124	-5.891577	20.994252
	2.535687	-4.954149	33.899155	-6.847602	22.097404
	2.781968	-4.954149	29.949068	-6.847602	18.147317
	2.880481	-3.201998	31.529103	-5.254227	23.072878
	2.954365	-2.724139	32.161117	-3.023502	26.413477
	3.151390	-3.679858	33.899155	-4.776214	25.443084
	3.102134	-1.768420	33.583148	-4.138864	27.675865
	3.964118	-2.246279	33.267141	-4.616877	26.403986
	3.249903	-3.361285	36.743218	-4.616877	28.765057
	4.161143	-2.405565	34.373166	-1.589464	30.378136
	3.323787	-3.042711	32.635127	-4.138864	25.453552
	4.308912	-2.724139	35.163183	-2.067477	30.371568
	3.865606	-0.812701	35.953201	-2.226814	32.913686
	4.653706	-0.494128	35.321187	-2.226814	32.600245
	4.136515	-0.653414	35.795197	-1.270789	33.870994
	4.850731	1.576597	37.217229	-1.111452	37.682374
	4.505937	0.939451	39.587281	0.641261	41.167993
	4.456681	1.258024	39.113271	0.163249	40.534543
	4.161143	0.939451	38.323253	-1.430127	37.832578
	4.161143	1.258024	38.323253	-0.633439	38.947838
	4.062631	0.620878	39.745285	0.163249	40.529411
	3.939490	1.417310	40.377299	2.712649	44.507258
	3.865606	-0.016268	39.903288	0.163249	40.050269
	3.373043	2.532316	41.009313	0.641261	44.182890
	3.570068	3.965895	44.011379	1.278611	49.255885
	2.905109	2.373029	41.641327	1.915961	45.930317
	3.471556	1.735883	39.113271	2.393974	43.243128
	2.978993	2.532316	42.115337	2.712649	47.360302
	3.668581	0.939451	42.431344	2.075299	45.446094
	3.052878	1.417310	44.327386	3.031324	48.776020
	3.151390	3.169462	43.695372	3.349999	50.214833
	2.954365	1.098737	41.641327	1.278611	44.018675
	2.437174	1.098737	42.589348	2.075299	45.763384
	2.658827	2.691602	43.063358	5.102711	50.857672
	2.018496	1.417310	41.641327	3.509336	46.567973
	2.535687	0.620878	43.221362	3.031324	46.873563
	1.919983	2.213743	44.485390	3.190661	49.889794
	2.486431	0.780165	44.643393	3.987349	49.410906
	2.289405	0.143018	43.853376	6.536749	50.533143
	2.560315	-0.016268	42.747351	3.987349	46.718432
	2.215521	-1.290560	44.485390	3.190661	46.385491
	2.412546	-0.812701	43.537369	2.234636	44.959304
	2.166265	-1.290560	40.219295	2.871986	41.800721
	2.092380	1.895170	45.749418	9.245486	56.890074
	2.067752	0.939451	44.485390	4.784036	50.208877
	2.166265	-2.086993	42.905355	2.712649	43.531011
	1.895355	-2.086993	43.221362	3.668674	44.803043
	1.821471	-1.449847	42.905355	4.306024	45.761532
	2.190893	-2.724139	43.221362	5.421386	45.918609
	1.575190	-2.405565	43.853376	4.465361	45.913171
	2.289405	-2.405565	41.957334	3.987349	43.539117
	1.525933	-3.520571	42.589348	3.987349	43.056125
	2.190893	-3.679858	41.799330	1.915961	40.035434
	2.067752	-0.494128	44.485390	4.784036	48.775298
	2.511059	-4.635576	41.009313	2.234636	38.608372
	1.919983	-3.201998	41.641327	5.421386	43.860715
	2.067752	-4.317003	41.167316	3.668674	40.518986
	1.969240	-5.591295	41.641327	1.278611	37.328642
	1.599818	-7.024874	41.325320	1.437949	35.738394
	1.993868	-4.794863	41.167316	2.234636	38.607089
	1.550562	-3.520571	41.957334	4.784036	43.220799
	2.190893	-3.839144	44.327386	3.509336	43.997578
	1.575190	-1.609133	42.589348	4.624699	45.604913
	2.166265	-4.794863	39.587281	2.712649	37.505067
	1.796843	-3.839144	43.379365	4.624699	44.164920
	2.264777	-6.069155	40.693306	0.800599	35.424749
	1.772215	-4.954149	41.957334	2.234636	39.237820
	2.215521	-5.272723	41.167316	4.306024	40.200617
	1.969240	-4.157717	41.325320	3.349999	40.517601
	2.264777	-7.024874	40.693306	0.641261	34.309693
	1.821471	-4.317003	41.009313	1.915961	38.608270
	2.117009	-3.042711	40.693306	3.031324	40.681918
	2.043124	-4.476290	39.429278	3.190661	38.143649
	1.772215	-3.042711	40.377299	2.393974	39.728561
	1.993868	-4.635576	40.219295	0.800599	36.384317
	1.328908	-5.750582	41.009313	1.119274	36.378004
	2.190893	-4.794863	40.219295	1.597286	37.021718
	1.673702	-5.591295	41.957334	1.915961	38.281999
	2.609571	-7.024874	38.165250	0.003911	31.144286
	2.387918	-6.547015	36.111204	-1.111452	28.452738
	2.363290	-5.750582	38.323253	-1.111452	31.461220
	2.190893	-3.839144	38.639260	1.119274	35.919390
	2.437174	-3.201998	36.269208	1.597286	34.664496
	2.363290	-4.317003	38.797264	0.641261	35.121521
	1.944612	-4.157717	39.271274	2.393974	37.507531
	2.511059	-4.476290	41.009313	1.278611	37.811634
	1.722958	-4.157717	39.113271	-0.155427	34.800127
	2.461802	-6.547015	36.585215	-1.430127	28.608074
	1.944612	-4.794863	37.217229	-0.314764	32.107602
	2.929737	-3.361285	39.429278	3.190661	39.258654
	2.338662	-5.272723	38.323253	-1.908139	31.142392
	2.831224	-2.883425	38.165250	-1.589464	33.692360
	2.511059	-4.476290	37.533236	-0.792777	32.264169
	2.757340	-5.113436	37.533236	-0.474102	31.945698
	2.732712	-5.591295	37.691239	0.163249	32.263192
	2.929737	-2.724139	39.903288	0.959936	38.139086
	2.855852	-4.794863	38.323253	-0.952114	32.576276
	2.708084	-3.201998	40.061292	0.481924	37.341217
	3.323787	-1.768420	43.695372	0.481924	42.408876
	2.757340	-2.086993	39.745285	1.915961	39.574253
	2.978993	-1.449847	37.691239	-0.314764	35.926629
	3.003621	-0.971987	42.115337	1.756624	42.899974
	3.496184	-1.449847	39.271274	-0.633439	37.187989
	2.831224	-2.883425	38.481257	-0.952114	34.645718
	3.102134	-4.635576	38.955267	0.163249	34.482939
	3.126762	-3.201998	40.219295	0.481924	37.499221
	2.905109	-3.839144	40.219295	-0.633439	35.746712
	3.176018	-4.157717	38.955267	-1.430127	33.367424
	2.708084	-1.609133	40.851309	0.641261	39.883437
	2.905109	-0.971987	41.641327	-0.314764	40.354576
	2.584943	-1.449847	41.957334	0.959936	41.467423
	3.348415	1.417310	40.693306	3.349999	45.460615
	2.658827	-0.971987	41.799330	1.119274	41.946617
	3.471556	-1.609133	41.641327	-0.633439	39.398755
	3.176018	-1.927706	44.485390	-0.474102	42.083582
	3.446928	-3.042711	40.693306	-0.633439	37.017155
	3.052878	-2.086993	41.009313	3.987349	42.909669
	3.151390	-0.653414	43.695372	2.553311	45.595269
	2.781968	-0.812701	42.431344	0.959936	42.578580
	2.511059	-0.494128	42.589348	2.234636	44.329856
	3.028249	0.461591	43.063358	0.641261	44.166211
	2.166265	-1.290560	42.589348	1.278611	42.577399
	2.806596	-3.839144	43.379365	1.278611	40.818832
	2.412546	-0.653414	44.959400	5.421386	49.727372
	2.929737	-2.405565	41.167316	1.278611	40.040362
	2.560315	-2.086993	42.431344	0.959936	41.304288
	2.560315	-1.768420	43.063358	0.641261	41.936200
	2.412546	-0.812701	44.643393	2.712649	46.543341
	2.166265	-1.290560	43.695372	5.262049	47.666861
	2.289405	2.691602	43.537369	2.871986	49.100957
	2.092380	-0.971987	47.645460	2.393974	49.067446
	2.535687	-3.201998	41.483323	-0.155427	38.125899
	2.338662	-4.476290	40.061292	0.322586	35.907588
	2.560315	-5.432009	41.799330	3.031324	39.398645
	2.190893	-2.883425	43.537369	2.871986	43.525930
	2.363290	-2.564852	41.957334	1.915961	41.308443
	2.092380	-2.883425	43.695372	2.871986	43.683933
	1.624446	-2.405565	43.379365	2.712649	43.686448
	2.117009	-1.131274	44.959400	5.421386	49.249513
	1.599818	-3.520571	42.589348	2.393974	41.462750
	2.584943	1.098737	43.379365	4.306024	48.784126
	1.993868	-2.883425	41.957334	3.190661	42.264570
	2.363290	-3.520571	42.747351	2.712649	41.939429
	2.166265	-4.157717	44.011379	2.393974	42.247636
	1.747587	-4.794863	41.009313	1.756624	37.971073
	2.043124	-6.387728	40.061292	2.393974	36.067537
	1.649074	-3.201998	42.431344	3.031324	42.260670
	2.387918	-3.042711	41.641327	0.800599	39.399214
	1.772215	-3.679858	41.009313	1.278611	38.608066
	2.264777	-2.564852	41.641327	2.393974	41.470448
	2.018496	-3.998431	42.115337	4.624699	42.741605
	2.092380	-4.794863	44.801397	3.031324	43.037857
	2.067752	-4.157717	42.431344	3.349999	41.623626
	1.649074	-4.157717	39.745285	2.393974	37.981541
	2.412546	-3.839144	41.957334	2.712649	40.830838
	1.673702	-3.998431	41.167316	2.234636	39.403522
	2.461802	-3.520571	39.745285	2.393974	38.618687
	2.166265	-3.679858	41.167316	3.987349	41.474807
	2.363290	-1.768420	40.377299	1.756624	40.365503
	2.166265	-3.520571	42.589348	1.597286	40.666063
	2.461802	-4.635576	40.219295	1.437949	37.021667
	2.141637	-4.635576	39.587281	1.915961	36.867666
	1.969240	-4.317003	42.273341	4.306024	42.262361
	2.560315	-7.184160	38.955267	0.322586	32.093693
	1.944612	-3.201998	40.061292	1.756624	38.615917
	2.486431	-4.954149	39.587281	0.003911	34.637043
	2.067752	-2.724139	41.957334	2.712649	41.945844
	2.781968	-3.679858	40.693306	3.031324	40.044772
	2.289405	-8.139880	36.743218	-2.067477	26.535862
	2.634199	-4.635576	37.375232	-1.748802	30.990854
	2.486431	-4.476290	40.219295	0.003911	35.746916
	2.240149	-5.113436	39.587281	0.959936	35.433781
	2.486431	-3.679858	40.219295	4.784036	41.323474
	1.624446	-3.679858	40.061292	2.712649	39.094083
	2.806596	-3.839144	41.325320	2.234636	39.720812
	2.264777	-5.272723	40.219295	-0.155427	34.791146
	2.978993	-1.290560	41.167316	1.597286	41.474042
	2.609571	-1.449847	41.799330	3.668674	44.018157
	3.249903	-3.679858	38.481257	0.959936	35.761335
	2.634199	-5.432009	39.587281	1.119274	35.274546
	2.683456	-6.865588	40.219295	-0.314764	33.038944
	2.658827	-5.113436	40.061292	0.481924	35.429779
	2.412546	-5.432009	38.955267	-1.111452	32.411807
	2.905109	-2.883425	41.483323	1.756624	40.356522
	2.043124	-2.724139	41.641327	4.784036	43.701224
	3.052878	-1.290560	40.219295	2.553311	41.482046
	2.584943	-1.768420	42.115337	2.871986	43.218904
	3.052878	-1.609133	41.325320	1.278611	40.994798
	2.708084	-2.405565	42.589348	2.871986	43.055768
	3.151390	-3.520571	41.483323	5.102711	43.065463
	2.609571	-2.564852	42.431344	3.509336	43.375828
	2.609571	-3.201998	42.905355	2.234636	41.937993
	2.954365	-4.794863	40.851309	0.641261	36.697707
	2.190893	-2.246279	42.273341	3.190661	43.217723
	3.102134	-3.679858	40.061292	4.146686	40.528120
	2.264777	-1.290560	43.695372	4.306024	46.710836
	3.151390	-2.564852	42.431344	2.393974	42.260466
	2.461802	-5.272723	40.219295	0.800599	35.747171
	3.200646	-1.290560	43.695372	3.509336	45.914148
	2.658827	-2.883425	45.275407	3.509336	45.901318
	2.757340	-2.883425	42.589348	3.509336	43.215259
	2.437174	-3.998431	40.061292	3.987349	40.050210
	2.067752	-2.883425	41.957334	3.349999	42.423907
	2.387918	-4.476290	42.273341	1.119274	38.916324
	1.747587	-3.839144	40.851309	0.959936	37.972101
	2.511059	-0.175555	43.063358	3.349999	46.237802
	1.944612	-2.405565	41.957334	5.740061	45.291829
	2.732712	-2.883425	42.747351	2.712649	42.576575
	2.190893	-4.157717	41.799330	1.756624	39.398237
	2.634199	-3.679858	40.693306	3.031324	40.044772
	2.338662	-3.839144	42.431344	2.871986	41.464186
	2.314034	-3.361285	42.115337	3.349999	42.104051
	2.609571	-3.520571	43.853376	3.987349	44.320153
	1.993868	-4.476290	41.799330	3.190661	40.513701
	2.609571	-1.609133	41.799330	3.828011	44.018208
	1.501305	-3.042711	41.325320	3.031324	41.313932
	2.708084	-5.272723	41.325320	0.481924	36.534521
	1.944612	-2.724139	42.589348	4.943374	44.808583
	2.560315	-4.157717	42.273341	4.784036	42.899660
	2.314034	-4.476290	42.747351	3.509336	41.780397
	2.486431	-4.157717	44.011379	2.393974	42.247636
	2.338662	-3.839144	42.905355	2.712649	41.778859
	2.067752	-3.361285	42.273341	3.987349	42.899405
	2.190893	-4.317003	42.905355	4.784036	43.372387
	1.993868	-4.317003	41.641327	3.349999	40.674322
	2.240149	-2.564852	41.009313	2.553311	40.997772
	1.747587	-3.201998	41.641327	2.234636	40.673965
	2.314034	-4.954149	41.957334	3.031324	40.034508
	1.796843	-0.971987	46.381432	8.767474	54.176918
	2.535687	-5.113436	41.325320	3.509336	39.721220
	2.043124	-4.635576	41.167316	2.871986	39.403726
	2.437174	-5.432009	42.115337	0.959936	37.643264
	2.067752	-3.361285	43.379365	4.943374	44.961454
	2.486431	-5.591295	39.271274	3.668674	37.348652
	2.190893	-1.131274	42.115337	3.987349	44.971412
	2.117009	-3.679858	41.799330	4.784036	42.903509
	2.511059	-3.042711	44.959400	3.668674	45.585362
	1.624446	-3.520571	42.273341	3.349999	42.102768
	2.363290	-3.839144	40.693306	3.190661	40.044823
	1.895355	-4.476290	41.799330	3.828011	41.151051
	2.634199	-4.476290	41.167316	5.102711	41.793737
	2.363290	-2.564852	42.431344	4.306024	44.172516
	2.609571	-4.157717	41.483323	2.393974	39.719580
	2.363290	-2.086993	41.325320	5.740061	44.978388
	2.806596	-3.998431	42.589348	3.190661	41.781578
	2.166265	-4.476290	43.063358	5.740061	44.327129
	2.314034	-4.317003	40.061292	3.668674	39.412962
	2.264777	-3.839144	41.167316	3.668674	40.996846
	1.919983	-5.113436	41.957334	3.349999	40.193896
	2.486431	-3.361285	42.589348	3.668674	42.896737
	2.240149	-5.113436	41.641327	5.421386	41.949277
	2.511059	-4.317003	40.851309	3.509336	40.043642
	1.969240	-2.724139	44.959400	3.509336	45.744598
	2.708084	-4.635576	40.851309	2.393974	38.609706
	2.363290	-0.812701	41.483323	4.306024	44.976646
	2.461802	-3.839144	41.483323	4.306024	41.950203
	2.658827	-5.272723	42.273341	4.146686	41.147304
	2.486431	-2.724139	42.115337	5.899399	45.290597
	2.289405	-3.201998	42.747351	4.465361	44.010714
	2.117009	-3.839144	42.589348	3.987349	42.737552
	2.757340	-2.246279	44.801397	4.306024	46.861141
	2.190893	-1.768420	44.327386	6.058736	48.617703
	2.905109	-3.998431	40.851309	5.102711	41.955590
	2.215521	1.098737	43.063358	5.899399	50.061494
	2.954365	-3.201998	42.589348	3.509336	42.896686
	2.486431	-2.724139	44.011379	3.828011	45.115252
	2.806596	-4.794863	41.483323	2.871986	39.560446
	2.560315	-3.042711	42.431344	6.536749	45.925381
	2.757340	-4.317003	43.221362	4.943374	43.847732
	2.511059	-0.971987	44.959400	7.492774	51.480187
	2.363290	-3.520571	41.641327	4.146686	42.267442
	2.511059	-3.042711	42.431344	3.349999	42.738631
	2.092380	-0.653414	44.011379	4.624699	47.982664
	3.003621	-3.201998	46.223428	3.987349	47.008779
	2.461802	-5.591295	42.273341	6.058736	42.740781
	3.274531	-3.520571	41.167316	4.146686	41.793431
	3.767093	-2.086993	43.537369	3.987349	45.437725
	4.752219	-3.679858	42.747351	2.712649	41.780142
	4.998500	-1.131274	42.747351	7.811449	49.427526
	6.106766	-1.131274	44.643393	8.448799	51.960918
	6.451560	0.780165	44.801397	5.899399	51.480960
	7.535197	0.620878	45.591414	4.146686	50.358978
	7.165776	1.258024	45.433411	4.943374	51.634808
	7.732223	3.328748	45.749418	6.058736	55.136902
	8.520323	2.532316	47.487456	8.289461	58.309233
	9.406936	2.532316	48.593481	7.970786	59.096583
	10.786111	5.399473	47.803463	7.970786	61.173722
	10.958508	6.036619	49.699505	8.448799	64.184923
	13.002643	6.992338	52.069558	8.767474	67.829369
	13.445949	9.859495	53.807596	11.635549	75.302640
	15.022150	10.178068	54.439610	11.316874	75.934552
	16.179672	13.363798	55.703638	11.794886	80.862322
	17.657360	18.301680	59.811729	14.344286	92.457695
	19.627611	17.664534	60.443743	14.184949	92.293225
	21.376209	18.301680	58.863708	13.388261	90.553649
	21.819515	21.009550	63.761817	16.734348	101.505715
	23.592741	23.398847	65.499855	19.283748	108.182451
	26.351092	26.425291	70.713971	19.921099	117.060360
	27.656383	29.611021	71.661992	19.921099	121.194111
	30.291594	32.796751	72.768016	21.036461	126.601228
	32.311101	34.548902	74.348051	22.948511	131.845464
	34.995568	39.964643	78.930153	27.409961	146.304757
	37.236729	42.672514	84.144268	28.525324	155.342106
	39.502518	42.353941	84.302272	28.684661	155.340874
	42.162357	48.566114	87.778349	31.074724	167.419187
	44.723684	53.503996	93.940485	33.146111	180.590592
	47.531292	56.052580	94.572499	35.854849	186.479928
	47.851458	60.831175	96.468541	37.766899	195.066614
	49.501543	64.335478	101.366650	40.316299	206.018426
	51.471795	70.069792	106.106755	41.909674	218.086220
	53.343534	75.804106	108.634811	43.662386	228.101303
	55.436926	79.308409	113.532919	47.645824	240.487152
	56.939243	87.750594	119.853059	51.151249	258.754901
	58.761726	91.732756	125.857192	56.250049	273.839997
	60.953631	93.166335	127.279224	55.453361	275.898919
	62.948511	103.042097	134.705388	60.233486	297.980972
	64.376944	110.050703	140.709521	64.216924	314.977148
	66.593477	116.422164	147.345668	68.837711	332.605543
	67.775628	123.430770	153.033794	74.573861	351.038425
	69.696624	130.757948	159.985948	77.123261	367.867158
	69.499599	138.562987	166.938102	80.788023	386.289113
	70.952660	147.483031	174.680274	84.771461	406.934766
	71.592992	154.969496	181.790431	93.694361	430.454289
	72.947540	163.252395	187.004547	101.342561	451.599502
	73.070681	167.393844	193.640694	102.298586	463.333123
	73.489359	171.376006	197.748785	103.891961	473.016752
	73.784897	179.340331	204.226928	110.743474	494.310733
	73.341591	184.596786	209.283040	112.336849	506.216674
	73.612500	190.649673	215.287173	118.232336	524.169182
	72.134811	196.702560	223.345352	122.215774	542.263685
	72.454977	201.481155	225.083390	123.490474	550.055018
	71.543735	203.870452	227.453443	125.561861	556.885756
	70.755635	206.419036	231.087523	126.677224	564.183783
	70.361584	209.923339	235.037611	127.473911	572.434861
	69.647368	212.312637	239.461709	131.138674	582.913019
	68.440588	213.586928	239.619712	133.847411	587.054052
	66.790502	216.772659	242.305772	134.325423	593.403853
	66.396452	214.064788	244.043810	131.776024	589.884622
	64.426200	215.498367	241.357751	131.616686	588.472803
	63.711984	216.135513	240.409730	133.528736	590.073978
	62.061898	214.224075	240.725737	134.484761	589.434572
	59.943877	213.586928	239.303705	130.819999	583.710632
	58.564701	211.834777	237.723670	130.341986	579.900433
	56.052630	210.879058	238.671691	130.819999	580.370748
	54.673454	208.808334	235.669625	129.385961	573.863919
	52.826343	210.082626	239.145702	134.962774	584.191101
	51.890473	201.481155	229.981499	125.721199	557.183852
	50.117247	201.003295	228.243460	124.924511	554.171266
	48.738071	200.047576	228.085457	127.155236	555.288269
	48.368649	197.498992	225.715404	124.127824	547.342220
	44.969965	193.198256	219.869275	122.853124	535.920655
	42.605664	188.578948	215.919187	117.754324	522.252459
	40.167478	185.552504	213.233128	114.886249	513.671881
	38.123342	183.163207	214.497156	115.045586	512.705948
	35.143337	176.313888	206.754984	111.062149	494.131020
	33.887302	173.924590	202.172883	109.309436	485.406909
	31.276719	167.393844	196.484757	104.529311	468.407911
	30.094569	164.367400	194.430711	105.485336	464.283447
	27.508614	160.863097	190.164617	101.342561	452.370275
	26.474233	155.288070	184.950501	95.925086	436.163657
	25.365967	150.509475	180.842410	94.013036	425.364921
	23.469600	146.049453	176.734319	90.666949	413.450720
	21.721002	139.200133	171.678207	89.392249	400.270588
	19.184305	132.669387	164.568050	84.134111	381.371547
	18.199179	129.165084	161.881990	82.700074	373.747147
	15.514713	124.067916	157.773899	78.875974	360.717788
	14.972894	116.422164	152.875791	74.255186	343.553140
	13.051899	112.121428	146.239644	72.343136	330.704208
	11.524955	105.749968	140.709521	67.563011	314.022500
	9.874870	102.723525	138.971483	64.216924	305.911931
	8.274041	96.989211	132.019329	62.304874	291.313413
	7.682966	88.547026	123.803146	56.728061	269.078234
	7.141147	85.202010	120.485073	54.816011	260.503094
	6.648585	78.193404	115.902972	51.151249	245.247624
	4.924616	72.777663	109.898839	49.079861	231.756362
	4.505937	68.158354	107.212779	48.442511	223.813644
	3.348415	62.105467	101.682657	40.794311	204.582434
	3.028249	54.778288	97.100555	36.651536	188.530379
	2.511059	58.919737	99.154601	41.909674	199.984011
	1.575190	50.955412	91.412429	36.970211	179.338052
	1.378165	45.698957	86.514321	33.305449	165.518727
	0.713205	41.876081	83.196247	29.162674	154.235002
	1.575190	38.212492	81.458208	26.613274	146.283974
	0.959486	31.363172	76.244093	25.657249	133.264514
	1.698330	29.611021	73.558034	26.453936	129.622991
	1.304280	29.611021	75.612079	24.860561	130.083661
	1.673702	23.717420	68.817928	21.514474	114.049823
	1.575190	23.398847	66.605880	20.877123	110.881850
	1.402793	20.850264	64.867841	19.124411	104.842516
	1.895355	18.460966	64.235827	18.805736	101.502529
	1.427421	17.823820	64.077824	17.053024	98.954667
	1.673702	13.363798	59.653726	18.009048	91.026572
	1.008743	10.018782	56.177649	14.025611	80.222041
	1.722958	8.107344	55.703638	11.954224	75.765205
	1.402793	8.585203	55.703638	12.272899	76.561740
	1.796843	7.629484	53.333586	12.272899	73.235968
	1.649074	5.718046	52.859575	13.706936	72.284557
	1.353536	9.063062	54.913621	13.866274	77.842956
	1.698330	4.603041	53.491589	10.360849	68.455478
	1.452049	4.284467	49.857509	8.767474	62.909450
	1.944612	1.098737	47.803463	7.811449	56.713649
	1.402793	1.735883	50.173516	11.635549	63.544948
	2.067752	1.417310	49.225495	9.404824	60.047629
	1.772215	-1.290560	45.275407	6.377411	50.362258
	1.649074	-1.449847	45.907421	6.377411	50.834986
	1.649074	-0.334841	47.013446	7.174099	53.852703
	1.575190	-3.042711	45.433411	7.492774	49.883473
	1.772215	-1.131274	45.749418	6.696086	51.314230
	1.304280	2.373029	45.907421	7.652111	55.932562
	1.673702	-2.883425	44.169383	4.624699	45.910656
	1.427421	0.620878	44.959400	5.740061	51.320339
	1.846099	-2.086993	42.115337	5.899399	45.927743
	1.698330	-3.998431	41.957334	4.624699	42.583602
	2.043124	-3.998431	41.483323	3.987349	41.472241
	1.624446	-3.361285	43.063358	3.509336	43.211410
	1.722958	-4.954149	40.851309	1.597286	37.494446
	1.624446	-4.317003	38.955267	0.003911	34.642175
	1.599818	-2.246279	39.113271	2.393974	39.260965
	1.722958	-3.520571	39.903288	3.828011	40.210728
	1.525933	-3.201998	39.429278	1.119274	37.346553
	1.919983	-3.998431	38.481257	0.481924	34.964750
	1.476677	-3.998431	37.849243	0.641261	34.492073
	2.240149	-4.635576	40.061292	-0.633439	34.792276
	1.944612	-3.839144	37.217229	0.003911	33.381996
	2.264777	-4.635576	35.321187	-0.633439	30.052171
	1.993868	-4.157717	35.953201	-0.155427	31.640057
	1.722958	-1.131274	38.007246	0.641261	37.517234
	2.215521	-3.201998	36.427211	-1.589464	31.635749
	1.698330	-2.246279	36.111204	-1.270789	32.594136
	2.190893	-3.361285	36.111204	-0.952114	31.797806
	2.215521	-4.476290	37.849243	0.481924	33.854876
	3.102134	-3.520571	36.111204	-1.748802	30.841832
	2.831224	-4.794863	34.531169	-3.342177	26.394130
	3.619325	-2.883425	36.111204	-0.314764	32.913015
	3.397671	-3.201998	38.323253	0.003911	35.125166
	3.619325	-3.998431	37.533236	1.119274	34.654079
	3.693209	-1.609133	38.007246	0.003911	36.402024
	3.323787	-1.609133	37.849243	-1.589464	34.650646
	3.225274	0.780165	43.221362	0.641261	44.642787
	3.028249	2.532316	40.693306	2.393974	45.619595
	3.200646	-0.334841	38.639260	2.712649	41.017068
	2.855852	-3.361285	38.955267	0.163249	35.757231
	3.619325	-1.449847	40.061292	0.003911	38.615356
	2.683456	2.532316	42.431344	3.987349	48.951009
	3.274531	-0.494128	40.851309	1.756624	42.113805
	2.683456	0.302305	42.589348	3.190661	46.082314
	2.683456	1.258024	42.589348	2.553311	46.400683
	2.560315	-0.016268	41.957334	3.509336	45.450402
	2.018496	1.417310	39.587281	2.393974	43.398565
	2.363290	-0.334841	41.009313	1.119274	41.793745
	1.722958	-1.449847	40.851309	-0.155427	39.246036
	2.264777	-0.016268	44.011379	3.509336	47.504447
	1.796843	-0.494128	41.957334	3.987349	45.450555
	2.240149	-0.334841	41.483323	3.190661	44.339143
	2.092380	1.576597	42.905355	4.465361	48.947313
	1.969240	-0.016268	41.009313	0.481924	41.474968
	2.018496	-2.564852	39.587281	1.119274	38.141703
	1.796843	3.806608	44.959400	8.448799	57.214807
	2.412546	-1.927706	41.641327	2.393974	42.107594
	1.821471	-2.405565	44.011379	3.349999	44.955812
	2.092380	-2.086993	41.957334	2.393974	42.264315
	1.722958	-1.290560	41.957334	3.190661	43.857435
	2.092380	-1.927706	43.379365	5.421386	46.873045
	1.722958	-2.564852	41.325320	2.234636	40.995104
	1.821471	-1.927706	41.325320	3.668674	43.066287
	1.919983	-1.927706	41.325320	2.712649	42.110262
	1.230396	0.939451	42.589348	3.031324	46.560122
	2.166265	-1.290560	44.011379	4.146686	46.867505
	1.378165	-0.653414	41.957334	3.668674	44.972593
	2.314034	-2.724139	40.693306	3.668674	41.637841
	2.092380	-6.228441	41.483323	0.959936	36.214818
	2.289405	-0.812701	43.537369	4.146686	46.871354
	1.747587	-2.724139	40.219295	2.393974	39.889130
	2.067752	-2.724139	41.957334	3.190661	42.423856
	1.993868	-4.157717	40.693306	3.668674	40.204262
	1.624446	-1.290560	44.011379	3.031324	45.752143
	2.314034	-2.405565	42.273341	2.393974	42.261749
	1.501305	-2.405565	40.219295	2.393974	40.207703
	2.117009	-3.520571	40.851309	1.278611	38.609349
	1.919983	-2.883425	42.115337	4.306024	43.537936
	2.141637	-3.361285	41.167316	3.190661	40.996693
	1.969240	-2.883425	41.167316	2.553311	40.837202
	1.969240	-3.998431	41.167316	1.597286	38.766172
	2.141637	-1.768420	44.011379	2.553311	44.796271
	1.821471	1.258024	43.063358	2.393974	46.715356
	2.166265	-4.157717	39.429278	0.641261	35.912822
	1.698330	0.939451	42.747351	4.784036	48.470838
	2.190893	-2.724139	42.589348	2.553311	42.418520
	1.919983	-6.228441	40.535302	-0.474102	33.832759
	2.584943	-4.635576	40.535302	-0.474102	35.425624
	2.363290	-0.971987	43.379365	3.828011	46.235389
	2.609571	-2.086993	45.591414	4.784036	48.288458
	2.437174	-2.405565	42.115337	2.075299	41.785070
	2.757340	-0.971987	43.063358	3.828011	45.919382
	2.806596	-3.679858	41.167316	-1.111452	36.376007
	2.338662	1.417310	43.537369	3.349999	48.304678
	2.978993	-0.971987	42.431344	5.262049	46.721406
	2.609571	-0.494128	43.221362	2.712649	45.439883
	3.348415	-1.927706	42.589348	1.119274	41.780915
	3.249903	-3.839144	42.747351	0.003911	38.912118
	3.323787	-3.839144	41.483323	0.481924	38.126103
	3.323787	-0.812701	42.589348	4.943374	46.720021
	3.200646	-1.609133	42.589348	3.190661	44.170876
	3.373043	1.576597	45.907421	5.102711	52.586729
	3.003621	0.780165	45.591414	3.031324	49.402902
	3.865606	0.461591	44.643393	2.553311	47.658296
	3.151390	0.143018	43.853376	2.553311	46.549705
	3.988747	1.735883	47.803463	4.943374	54.482720
	3.742465	0.143018	44.959400	4.943374	50.045792
	4.235028	-0.334841	43.221362	3.031324	45.917844
	4.062631	1.098737	45.433411	2.393974	48.926122
	4.333540	-0.334841	44.959400	1.915961	46.540520
	4.038003	1.098737	48.593481	2.712649	52.404867
	3.988747	4.284467	46.697439	5.740061	56.721967
	4.358168	1.895170	45.275407	3.668674	50.839251
	3.840978	5.718046	48.909488	5.899399	60.526932
	4.826103	1.895170	46.697439	3.349999	51.942607
	4.259656	1.895170	46.697439	3.509336	52.101945
	5.244781	3.010175	48.277474	6.218074	57.505723
	5.220153	5.240187	49.857509	6.058736	61.156431
	5.811228	3.169462	49.699505	4.146686	57.015653
	5.540319	5.080900	49.541502	5.899399	60.521800
	5.614203	5.399473	49.857509	5.421386	60.678368
	6.082138	3.647321	51.121537	4.465361	59.234219
	5.614203	7.948057	50.489523	5.740061	64.177641
	6.451560	3.965895	47.171449	3.668674	54.806017
	5.614203	5.877333	49.857509	5.262049	60.996890
	6.747097	6.195905	52.859575	5.899399	64.954879
	6.697841	6.514479	52.859575	6.218074	65.592127
	7.609082	5.558759	51.911554	5.421386	62.891700
	7.387429	8.425916	53.175582	8.289461	69.890960
	8.027760	7.948057	54.755617	7.174099	69.877773
	8.298670	10.178068	55.703638	7.652111	73.533817
	8.347926	11.293074	53.649593	6.536749	71.479415
	9.480820	10.815214	55.387631	8.608136	74.810981
	9.308423	10.815214	55.387631	10.360849	76.563694
	10.638342	11.452360	58.073691	8.608136	78.134187
	10.736855	11.133787	56.651659	8.608136	76.393582
	11.352558	11.770933	57.125670	8.608136	77.504739
	11.598839	14.319517	57.757684	9.404824	81.482024
	12.707105	14.956663	59.811729	10.042174	84.810566
	13.150412	16.230955	61.865775	11.635549	89.732278
	13.495206	18.142393	59.653726	11.794886	89.591005
	14.283306	17.983107	62.339785	11.954224	92.277115
	14.652728	19.257399	65.657859	11.794886	96.710143
	15.958019	19.735258	64.077824	11.794886	95.607968
	16.647607	18.938826	62.023778	11.794886	92.757490
	17.854385	21.328123	66.131869	16.575011	104.035003
	18.322320	23.876707	67.711904	14.662961	106.251572
	19.332073	25.469572	68.659925	15.140974	109.270471
	19.602983	26.266004	69.449943	14.822299	110.538246
	20.218686	28.973875	71.819995	18.009048	118.802919
	20.809761	30.885313	75.138069	21.195799	127.219180
	21.129927	33.593183	73.558034	18.646399	125.797616
	22.312078	34.071043	75.770083	19.602424	129.443549
	22.829269	33.752470	75.296072	19.602424	128.650966
	25.021173	35.663908	77.982132	21.036461	134.682501
	24.430097	35.823194	77.982132	23.585861	137.391187
	25.883157	38.212492	80.510188	23.745199	142.467878
	26.351092	41.398222	82.880240	24.382548	148.661011
	27.286961	42.035368	86.672324	25.975924	154.683616
	27.902665	44.424665	85.566300	26.294599	156.285564
	28.124318	46.973249	84.776282	28.206648	159.956180
	28.986303	49.999693	90.306405	31.074724	171.380821
	28.518368	50.955412	91.886440	32.827436	175.669288
	30.119197	52.229704	90.780415	32.190086	175.200205
	30.217710	57.008299	96.784548	35.695511	189.488358
	31.276719	57.486158	97.100555	35.058161	189.644875
	31.793910	63.220472	102.946685	40.475636	206.642793
	32.729780	62.105467	101.998664	42.228349	206.332479
	32.803664	66.246916	102.788681	41.750336	210.785933
	32.803664	71.344084	106.264758	43.821724	221.430565
	33.788790	71.662657	108.950817	45.415099	226.028573
	33.542508	73.892668	112.584898	47.008474	233.486040
	34.724659	75.804106	113.532919	50.991911	240.328936
	34.059699	78.193404	115.586965	51.629261	245.409629
	34.576890	78.671263	118.589031	52.266611	249.526905
	34.601518	82.653425	120.169066	54.178661	257.001153
	34.552262	85.042723	121.275091	56.090711	262.408524
	34.675403	87.750594	124.593164	60.392824	272.736581
	34.379865	90.458464	127.121220	61.189511	278.769195
	34.650774	90.617751	126.331203	61.508186	278.457139
	33.665649	94.759200	129.965283	62.623548	287.348031
	34.330609	94.440626	130.755301	63.579574	288.775501
	33.222342	95.396346	132.967350	65.013611	293.377306
	33.788790	94.281340	131.861325	64.535599	290.678264
	33.148458	95.555632	132.967350	68.678374	297.201355
	32.926805	93.166335	130.281290	64.854274	288.301898
	32.606639	96.192778	133.915371	66.288311	296.396460
	32.138704	96.829924	135.495406	67.403673	299.729003
	31.646142	95.396346	133.441360	67.244336	296.082042
	30.956554	97.785643	135.495406	71.705786	304.986835
	31.128951	97.148497	138.023462	69.634399	304.806357
	30.069941	97.467070	132.651343	66.766323	296.884736
	30.562503	93.166335	129.807280	66.447648	289.421263
	29.158700	93.962767	132.493339	68.678374	295.134480
	28.961675	92.051329	131.861325	69.793736	293.706390
	27.976549	92.688475	131.861325	68.837711	293.387511
	27.533243	90.458464	130.439294	67.563011	288.460769
	26.769770	88.706313	127.121220	65.172949	281.000481
	25.809273	90.936324	128.859259	65.969636	285.765218
	26.301836	87.272734	126.331203	64.376261	277.980198
	24.725635	86.794875	123.487140	64.854274	275.136288
	25.193570	84.883437	123.487140	65.491624	273.862200
	24.036047	81.856993	122.539119	63.420236	267.816348
	23.592741	80.901274	122.539119	61.508186	264.948579
	22.558359	80.741988	119.695056	60.074149	260.511191
	21.893399	77.556258	116.534986	59.436799	253.528042
	21.302324	75.804106	117.008996	59.436799	252.249901
	20.070917	76.600539	115.428961	58.640111	250.669611
	19.578355	77.237685	114.322937	59.436799	250.997420
	18.199179	74.529814	110.530853	54.178661	239.239328
	18.667114	72.299803	111.794881	56.090711	240.185395
	17.681988	71.662657	108.318804	56.728061	236.709522
	17.780501	67.680495	107.054776	52.585286	227.320556
	17.041657	65.450484	105.632744	51.310586	222.393814
	16.327441	64.016905	105.790748	50.035886	219.843539
	15.662481	62.583327	102.314671	49.239199	214.137196
	14.825125	63.220472	102.472674	53.381974	219.075120
	14.677356	60.512602	98.838594	47.486486	206.837682
	13.667603	59.875456	98.680590	46.211786	204.767832
	13.692231	57.486158	98.048576	45.096424	200.631158
	12.731733	57.326872	94.730503	43.184374	195.241748
	12.682477	54.300428	93.308471	44.459074	192.067973
	11.820493	52.229704	93.782482	42.547024	188.559209
	11.032392	50.158980	90.622412	42.069011	182.850402
	11.377186	49.203260	88.094356	39.838286	177.135902
	10.195036	47.132536	88.410363	38.244911	173.787810
	10.712227	46.654677	86.988331	36.651536	170.294544
	9.579332	45.698957	87.620345	36.492199	169.811501
	9.874870	42.672514	83.196247	36.651536	162.520297
	9.086770	42.353941	80.984198	34.420811	157.758950
	8.741976	40.123930	80.668191	32.986774	153.778895
	8.077016	36.619627	79.246160	31.552736	147.418522
	7.264288	34.867475	76.402096	29.800024	141.069595
	7.609082	35.345335	76.402096	30.437373	142.184805
	6.771725	35.504621	77.350118	31.552736	144.407475
	7.239660	30.566740	73.242027	26.135261	129.944028
	6.032881	31.681745	73.242027	27.887974	132.811746
	6.303791	29.292448	70.239960	25.019899	124.552307
	6.008253	29.770307	68.817928	24.701224	123.289459
	6.082138	26.425291	68.343918	23.426524	118.195733
	6.057510	25.150999	65.183848	21.992486	112.327333
	5.072384	24.354567	66.763883	22.789174	113.907623
	5.441806	21.487409	65.657859	20.399111	107.544379
	4.604450	22.602415	66.921886	21.673811	111.198113
	5.786600	19.098112	62.813796	19.124411	101.036319
	4.875359	18.779539	61.075757	19.443086	99.298382
	4.949244	16.708815	61.075757	17.212361	94.996933
	4.432053	19.098112	61.865775	18.009048	98.972935
	4.801475	16.549528	58.073691	15.459649	90.082867
	4.456681	19.257399	58.389698	16.575011	94.222107
	4.013375	15.115949	57.915687	16.893686	89.925323
	4.259656	14.797377	59.969733	16.256336	91.023445
	3.545440	11.930219	55.861642	13.228924	81.020785
	4.259656	11.930219	54.439610	12.591574	78.961403
	4.161143	10.018782	53.491589	12.750911	76.261282
	4.555194	7.948057	51.595547	11.157536	70.701140
	4.185772	10.815214	53.491589	11.794886	76.101689
	4.111887	9.700209	52.543568	12.591574	74.835350
	4.235028	10.018782	51.911554	10.998199	72.928534
	3.668581	8.585203	54.439610	9.564161	72.588974
	4.382797	7.948057	52.701572	10.360849	71.010477
	3.791721	6.992338	49.383498	10.360849	66.736685
	4.407425	8.744490	52.069558	13.228924	74.042971
	4.259656	8.425916	52.385565	11.316874	72.128355
	4.111887	3.965895	48.277474	5.421386	57.664754
	4.259656	6.355192	49.067491	7.174099	62.596782
	4.087259	9.222349	52.227561	11.476211	72.926121
	4.826103	9.859495	51.437544	11.316874	72.613912
	4.284284	4.762327	47.961467	7.174099	59.897892
	5.097012	6.195905	47.961467	6.218074	60.375446
	5.072384	6.195905	48.435477	7.811449	62.442831
	5.072384	3.806608	49.067491	7.652111	60.526210
	5.170897	4.603041	49.541502	9.564161	63.708703
	4.579822	6.514479	50.015512	8.767474	65.297464
	5.466434	5.877333	49.383498	7.174099	62.434929
	4.949244	5.718046	52.701572	7.333436	65.753054
	5.737344	7.151625	48.909488	7.333436	63.394548
	5.614203	7.470198	49.225495	10.201511	66.897203
	5.958997	8.744490	48.909488	7.333436	64.987413
	5.909741	7.788771	51.121537	8.926811	67.837118
	5.958997	8.425916	51.437544	10.042174	69.905634
	6.328419	7.310911	51.121537	8.289461	66.721909
	6.131394	8.903776	51.595547	8.289461	68.788784
	7.165776	5.877333	51.279540	7.333436	64.490309
	6.500816	10.178068	53.333586	12.272899	75.784552
	7.264288	9.540922	49.699505	7.811449	67.051876
	7.091891	9.859495	52.701572	9.086149	71.647215
	7.362801	11.452360	53.491589	9.086149	74.030098
	7.461313	10.655928	55.071624	10.201511	75.929063
	7.018007	10.655928	55.229628	13.706936	79.592491
	7.806107	10.496641	53.965600	10.520186	74.982427
	7.412057	12.567366	54.755617	11.954224	79.277206
	8.274041	11.452360	56.019645	10.838861	78.310866
	7.830735	11.930219	55.229628	10.042174	77.202021
	8.471067	11.930219	54.439610	9.564161	75.933991
	8.397182	14.638090	58.389698	13.069586	86.097374
	8.495695	17.664534	60.285740	13.866274	91.816547
	8.520323	14.160231	58.231694	11.954224	84.346148
	8.446438	15.275236	58.231694	12.272899	85.779829
	8.741976	14.319517	59.021712	12.591574	85.932802
	8.200157	14.797377	59.179715	12.910248	86.887340
	9.406936	14.478804	58.073691	13.706936	86.259430
	9.209910	17.823820	61.233761	14.344286	93.401866
	9.677845	17.505247	62.023778	13.706936	93.235961
	9.406936	18.938826	64.077824	14.503624	97.520273
	9.776358	17.983107	60.443743	13.228924	91.655773
	9.653217	18.142393	61.549768	16.575011	96.267172
	10.145780	20.053831	63.287806	14.503624	97.845261
	10.170408	19.257399	62.813796	13.388261	95.459455
	10.145780	17.823820	60.443743	12.432236	90.699799
	10.687598	19.257399	63.129802	14.981636	97.368837
	10.465945	21.009550	65.341852	18.487061	104.838463
	11.327930	19.894544	67.553900	16.256336	103.704781
	11.155533	23.080275	67.079890	17.371699	107.531863
	11.475699	24.354567	65.815862	18.009048	108.179477
	11.475699	22.124555	65.815862	15.459649	103.400066
	11.574211	23.876707	65.815862	16.256336	105.948905
	12.214543	24.195280	67.395897	18.487061	110.078238
	11.721980	23.080275	67.553900	18.965074	109.599249
	12.362311	22.761702	67.395897	17.212361	107.369960
	12.583965	24.673140	69.765950	17.053024	111.492113
	13.445949	24.195280	68.817928	16.415674	109.428882
	13.248924	24.673140	67.711904	18.168386	110.553430
	13.766115	26.106718	67.553900	19.602424	113.263042
	13.987768	28.177443	71.345985	19.921099	119.444525
	13.987768	30.248167	72.136002	19.443086	121.827255
	14.037025	27.699583	70.871974	18.327724	116.899281
	13.692231	28.973875	72.136002	20.399111	121.508988
	15.046778	29.292448	76.086090	23.267186	128.645724
	14.504959	28.814589	72.610012	20.717786	122.142387
	15.465456	29.611021	72.452009	21.036461	123.099491
	14.972894	31.363172	75.454076	21.514474	128.331722
	15.366944	31.363172	74.980065	21.992486	128.335724
	15.613225	33.911756	74.980065	26.135261	135.027083
	15.490084	33.593183	75.296072	22.789174	131.678429
	16.425954	33.274610	75.770083	23.267186	132.311879
	15.859506	37.097487	78.298139	23.585861	138.981486
	16.672235	35.345335	78.614146	24.223211	138.182692
	16.943144	35.026762	77.508121	25.179236	137.714119
	17.164798	34.867475	76.718104	24.223211	135.808790
	16.795376	35.026762	78.140135	25.019899	138.186796
	17.263310	36.778913	79.878174	25.179236	141.836323
	17.411079	38.212492	80.352184	24.223211	142.787887
	17.189426	40.601790	80.984198	25.019899	146.605886
	18.248435	41.557508	85.882306	27.728636	155.168451
	17.731245	42.353941	82.564233	29.162674	154.080848
	18.026782	41.557508	81.300205	27.887974	150.745687
	17.632732	41.079649	84.776282	27.887974	153.743904
	18.371576	41.079649	83.986265	27.409961	152.475875
	18.125295	46.176817	88.568366	31.074724	165.819907
	18.420832	42.035368	83.354251	27.728636	153.118255
	18.346948	45.221098	85.092289	29.959361	160.272748
	18.076039	48.247541	87.936352	32.030749	168.214642
	18.322320	46.176817	86.830328	30.118699	163.125843
	17.755873	48.884687	86.514321	29.959361	165.358369
	18.519345	47.291822	87.936352	30.278036	165.506211
	18.149923	48.088255	89.200380	32.190086	169.478721
	18.593229	49.203260	92.044443	34.580149	175.827852
	18.149923	51.273985	92.676457	35.376836	179.327278
	17.952898	48.406828	90.148401	32.508761	171.063990
	17.903642	50.636839	93.782482	32.827436	177.246757
	17.731245	48.406828	89.674391	32.030749	170.111967
	18.125295	51.273985	90.464408	36.014186	177.752579
	17.386451	49.840406	89.042377	32.030749	170.913531
	17.829757	51.114699	92.676457	33.464786	177.255942
	17.140169	51.911131	92.202447	33.146111	177.259689
	17.435707	50.318266	91.096422	33.464786	174.879474
	17.435707	50.636839	91.886440	36.810874	179.334152
	17.115541	51.273985	94.572499	36.173524	182.020008
	16.795376	50.796125	92.360450	33.624124	176.780699
	16.278185	48.406828	90.148401	32.827436	171.382665
	16.844632	50.158980	90.306405	33.942799	174.408183
	16.130416	51.433271	92.202447	37.448224	181.083942
	16.647607	50.318266	92.518454	34.580149	177.416868
	15.810250	50.318266	90.464408	34.739486	175.522160
	15.834878	49.043974	89.674391	34.102136	172.820501
	15.637853	47.928968	89.832394	33.464786	171.226149
	15.071406	46.495390	89.042377	31.552736	167.090503
	15.145291	48.406828	89.200380	33.624124	171.231332
	14.578844	46.813963	89.042377	35.058161	170.914501
	15.046778	48.088255	89.516387	33.624124	171.228766
	14.431075	47.451109	90.780415	31.552736	169.784260
	14.972894	46.336103	87.778349	32.349424	166.463876
	14.307934	46.336103	85.250293	31.393399	162.979794
	14.283306	44.265379	85.408296	32.508761	162.182436
	13.864628	43.150374	85.566300	31.074724	159.791397
	13.569090	43.628233	84.934286	30.756049	159.318567
	13.692231	43.150374	85.408296	31.234061	159.792731
	12.928759	41.079649	83.828261	29.481348	154.389258
	13.618346	42.353941	86.040310	32.030749	160.425000
	12.854874	40.761076	83.038244	29.322011	153.121330
	13.372065	43.150374	82.248226	28.047311	153.445910
	13.199668	39.964643	81.142202	27.728636	148.835481
	12.854874	40.123930	82.090223	28.206648	150.420801
	12.805618	39.168211	77.982132	27.091286	144.241628
	11.746608	39.486784	81.142202	28.843999	149.472984
	12.756362	40.123930	82.722237	29.640686	152.486852
	12.362311	39.327497	84.144268	29.640686	153.112452
	12.165286	37.416059	79.562167	26.453936	143.432162
	12.189915	36.619627	78.930153	26.772611	142.322391
	12.362311	38.849638	80.984198	28.684661	148.518497
	11.845121	38.212492	79.088156	28.047311	145.347959
	11.721980	36.141768	76.560100	26.453936	139.155804
	11.426442	36.938200	77.508121	25.338573	139.784895
	10.884624	34.548902	76.402096	24.223211	135.174210
	11.377186	31.681745	76.402096	23.745199	131.829041
	10.958508	33.433897	76.402096	27.250623	137.086617
	11.451071	33.593183	74.664058	24.860561	133.117803
	11.032392	35.504621	76.718104	27.250623	139.473349
	11.352558	32.159605	74.348051	23.426524	129.934179
	10.884624	34.071043	76.086090	23.426524	133.583656
	10.859995	32.318891	74.190048	23.426524	129.935462
	10.958508	34.548902	75.138069	25.497911	135.184882
	10.761483	34.548902	77.824128	28.843999	141.217029
	10.859995	31.522459	74.506055	24.541886	130.570400
	10.195036	30.885313	72.136002	22.789174	125.810489
	10.589086	30.407453	72.610012	21.514474	124.531939
	10.022639	28.814589	72.294006	22.470499	123.579093
	10.909252	29.611021	71.029978	24.223211	124.864210
	10.564458	30.566740	72.610012	22.948511	126.125263
	10.613714	28.814589	70.713971	20.399111	119.927670
	10.589086	31.841032	73.874041	22.151823	127.866896
	10.392061	29.451735	71.977998	22.789174	124.218907
	10.416689	30.248167	71.029978	24.860561	126.138706
	10.293548	29.451735	70.397964	22.789174	122.638872
	10.170408	28.814589	71.661992	21.195799	121.672379
	9.899498	28.496015	72.452009	22.311161	123.259186
	10.244292	28.336729	70.713971	21.355136	120.405836
	9.505448	26.903150	70.239960	23.585861	120.728972
	10.195036	27.699583	73.558034	21.514474	122.772090
	9.579332	28.336729	69.923953	21.036461	119.297143
	10.219664	27.540297	68.185914	20.717786	116.443997
	9.850242	29.770307	69.923953	21.195799	120.890059
	10.145780	29.133161	71.661992	23.267186	124.062339
	9.825614	25.628858	71.029978	21.514474	118.173310
	10.515202	23.717420	66.921886	19.443086	110.082393
	9.776358	25.947432	67.553900	19.921099	113.422430
	9.677845	24.832426	68.975932	19.443086	113.251444
	9.850242	26.584578	69.607946	19.443086	115.635609
	9.530076	25.150999	65.815862	18.965074	109.931935
	9.948754	26.584578	69.449943	23.745199	119.779719
	9.357679	25.150999	67.553900	19.921099	112.625998
	9.850242	24.035993	68.501922	18.965074	111.502989
	9.702473	26.584578	70.871974	22.151823	119.608375
	10.244292	27.699583	70.713971	22.948511	121.362065
	9.751729	24.991712	66.921886	21.355136	113.268735
	9.874870	24.035993	68.343918	20.080436	112.460348
	9.800986	24.354567	66.921886	19.602424	110.878877
	9.554704	24.195280	67.553900	19.602424	111.351604
	10.047267	27.381010	70.713971	21.833149	119.928129
	9.357679	26.584578	69.133936	22.789174	118.507687
	9.998011	25.628858	68.659925	20.717786	115.006570
	9.456192	26.106718	67.553900	19.761761	113.422380
	10.687598	22.602415	66.447876	17.531036	106.581327
	9.973383	23.398847	67.553900	18.487061	109.439809
	10.539830	24.035993	66.289873	19.761761	110.087627
	10.268920	24.354567	67.237894	19.602424	111.194884
	10.219664	23.398847	67.711904	22.151823	113.262575
	10.515202	25.628858	69.923953	20.877123	116.429935
	10.244292	25.788145	68.501922	19.761761	114.051828
	10.539830	26.266004	68.027911	20.080436	114.374352
	10.195036	25.788145	66.921886	19.283748	111.993780
	10.786111	26.425291	69.765950	23.426524	119.617764
	10.416689	24.035993	67.395897	20.558449	111.990339
	11.032392	23.398847	67.395897	18.168386	108.963131
	10.909252	26.425291	69.449943	21.036461	116.911695
	11.032392	24.513853	71.187981	19.443086	115.144920
	11.007764	25.628858	68.185914	21.195799	115.010571
	10.638342	27.062437	67.237894	21.036461	115.336792
	10.983136	27.062437	69.133936	21.355136	117.551509
	10.736855	25.628858	66.921886	18.805736	111.356481
	11.475699	26.106718	69.449943	20.080436	115.637097
	11.155533	27.062437	70.081957	20.239773	117.384167
	11.943633	24.673140	67.711904	19.124411	111.509455
	11.524955	26.743864	70.713971	22.470499	119.928333
	11.648096	25.469572	69.133936	20.239773	114.843281
	11.623468	27.858870	70.081957	21.195799	119.136625
	11.352558	29.451735	70.239960	21.195799	120.887493
	11.475699	27.381010	70.239960	21.195799	118.816769
	11.155533	28.336729	70.713971	21.195799	120.246498
	11.721980	28.018156	70.239960	21.673811	119.931927
	11.303302	28.814589	70.081957	20.080436	118.976981
	12.116030	26.584578	72.768016	18.805736	118.158330
	11.549583	27.858870	71.029978	21.833149	120.721995
	12.313055	27.381010	69.291939	23.745199	120.418148
	12.066774	28.655302	71.345985	22.151823	122.153110
	12.165286	28.018156	71.345985	21.673811	121.037951
	12.017518	29.929594	70.713971	22.151823	122.795388
	11.820493	29.451735	71.029978	21.673811	122.155523
	12.116030	30.885313	73.084023	26.135261	130.104597
	11.648096	32.318891	74.822062	24.541886	131.682839
	12.411568	30.407453	72.926020	22.789174	126.122647
	11.795864	28.336729	71.819995	22.948511	123.105235
	12.534708	32.000318	73.716037	24.701224	130.417579
	12.091402	30.248167	73.400030	23.267186	126.915383
	12.583965	30.566740	74.506055	23.904536	128.977330
	12.214543	29.929594	72.294006	24.860561	127.084161
	12.485452	32.796751	73.874041	24.860561	131.531352
	11.943633	31.522459	76.402096	23.585861	131.510416
	11.943633	31.681745	73.558034	22.789174	128.028953
	12.362311	31.841032	72.926020	23.745199	128.512250
	11.820493	31.522459	74.664058	26.294599	132.481116
	12.337683	30.566740	74.190048	23.904536	128.661324
	12.042146	32.000318	76.244093	24.541886	132.786297
	12.830246	30.566740	74.348051	24.382548	129.297339
	12.534708	32.318891	74.348051	24.541886	131.208828
	13.002643	31.203886	74.980065	25.338573	131.522525
	12.510080	33.115324	75.454076	25.497911	134.067311
	12.731733	35.026762	75.454076	25.816586	136.297424
	12.460824	32.000318	74.032044	23.904536	129.936899
	12.165286	34.548902	76.560100	25.497911	136.606914
	12.657849	32.796751	76.560100	26.135261	135.492112
	12.189915	33.593183	76.560100	26.453936	136.607220
	12.707105	35.663908	78.930153	28.525324	143.119384
	12.042146	32.318891	77.982132	24.860561	135.161584
	12.953387	31.841032	75.770083	24.860561	132.471676
	12.436196	35.345335	75.928086	27.250623	138.524045
	12.830246	32.956038	74.980065	25.019899	132.956001
	12.559337	32.159605	74.980065	24.701224	131.840893
	12.657849	35.026762	76.086090	26.135261	137.248112
	12.534708	31.522459	74.348051	22.311161	128.181671
	12.066774	33.752470	77.666125	25.816586	137.235181
	12.386940	31.841032	76.244093	24.063874	132.148999
	11.919005	36.938200	79.088156	30.437373	146.463729
	12.608593	35.345335	77.034110	27.887974	140.267419
	12.066774	34.867475	76.718104	26.294599	137.880178
	12.682477	33.274610	75.454076	24.541886	133.270572
	12.411568	33.911756	77.508121	25.019899	136.439776
	12.731733	36.301054	75.296072	26.294599	137.891725
	12.337683	34.071043	75.770083	25.657249	135.498374
	12.313055	32.318891	74.190048	26.772611	133.281550
	12.386940	33.115324	77.192114	25.975924	136.283361
	11.845121	33.274610	76.244093	24.382548	133.901252
	12.411568	32.000318	75.770083	24.382548	132.152949
	11.549583	33.593183	76.402096	25.657249	135.652528
	12.214543	33.593183	78.298139	27.728636	139.619958
	11.943633	31.841032	74.190048	23.585861	129.616940
	12.362311	34.867475	74.506055	24.223211	133.596741
	12.263799	33.593183	76.876107	24.541886	135.011177
	12.214543	36.938200	78.772149	27.409961	143.120310
	12.017518	33.433897	74.348051	27.887974	135.669921
	11.869749	33.593183	76.086090	26.772611	136.451884
	12.411568	33.752470	76.876107	25.497911	136.126488
	11.254046	34.230329	78.614146	25.816586	138.661061
	11.919005	32.159605	75.612079	24.860561	132.632245
	11.327930	31.681745	73.558034	25.816586	131.056365
	12.140658	32.956038	74.980065	24.701224	132.637326
	11.623468	33.433897	76.560100	25.497911	135.491908
	11.968261	33.274610	72.768016	23.426524	129.469150
	11.574211	32.478178	74.822062	24.860561	132.160800
	11.352558	30.566740	74.032044	25.338573	129.937357
	11.524955	33.593183	78.140135	26.613274	138.346592
	11.401814	32.796751	75.454076	25.975924	134.226750
	11.648096	32.159605	73.874041	25.179236	131.212882
	10.736855	33.274610	75.928086	25.497911	134.700607
	11.648096	33.752470	75.454076	24.382548	133.589094
	10.909252	32.796751	73.874041	25.975924	132.646715
	11.845121	34.867475	74.822062	27.250623	136.940160
	11.204789	32.318891	74.664058	25.019899	132.002848
	11.401814	30.407453	74.506055	22.948511	127.862019
	11.278674	31.203886	74.664058	24.701224	130.569168
	11.229417	30.566740	72.768016	23.904536	127.239292
	11.155533	30.407453	73.242027	26.613274	130.262754
	10.761483	30.407453	73.242027	23.745199	127.394679
	10.909252	32.000318	75.454076	24.701224	132.155618
	10.392061	29.292448	71.345985	22.151823	122.790256
	10.958508	35.504621	74.980065	25.816586	136.301272
	10.293548	30.248167	76.402096	26.294599	132.944862
	11.032392	29.611021	71.661992	22.789174	124.062186
	10.983136	28.336729	69.133936	21.833149	119.303813
	11.081649	29.133161	73.084023	23.107848	125.325033
	10.786111	30.566740	73.874041	24.541886	128.982666
	11.032392	29.292448	70.555967	25.179236	125.027651
	10.786111	28.336729	72.294006	23.585861	124.216596
	10.589086	30.088881	72.294006	24.860561	127.243447
	10.983136	30.566740	73.874041	23.904536	128.345316
	10.367433	30.088881	72.452009	22.789174	125.330063
	10.958508	31.522459	72.294006	23.745199	127.561663
	10.342805	28.814589	70.397964	22.789174	122.001726
	11.106277	25.628858	70.713971	24.701224	121.044052
	10.687598	28.655302	71.187981	22.948511	122.791794
	10.761483	28.655302	71.029978	21.195799	120.881078
	10.416689	27.062437	70.239960	20.877123	118.179521
	10.638342	27.699583	73.716037	21.514474	122.930093
	10.712227	29.133161	71.819995	25.019899	125.973055
	10.244292	28.973875	69.449943	23.107848	121.531666
	10.539830	31.681745	71.029978	22.311161	125.022884
	9.998011	29.292448	72.136002	23.585861	125.014311
	10.835367	28.655302	72.136002	22.470499	123.261803
	10.170408	26.584578	69.923953	21.195799	117.704329
	10.761483	29.133161	71.187981	23.426524	123.747666
	10.539830	26.903150	71.503988	23.267186	121.674325
	10.859995	28.814589	71.187981	23.426524	123.429093
	10.564458	33.433897	74.348051	26.135261	133.917209
	10.367433	30.566740	70.397964	20.717786	121.682490
	10.662970	29.770307	71.029978	22.629836	123.430121
	10.367433	28.973875	72.926020	24.701224	126.601118
	10.662970	28.177443	70.555967	22.311161	121.044571
	9.899498	27.540297	70.397964	21.514474	119.452734
	10.859995	27.540297	72.452009	20.877123	120.869429
	10.244292	27.699583	70.871974	22.789174	121.360731
	10.662970	26.743864	68.185914	23.267186	118.196965
	10.490573	26.266004	70.239960	21.992486	118.498451
	10.933880	28.177443	71.029978	22.151823	121.359243
	10.712227	28.973875	71.503988	21.514474	121.992337
	10.539830	29.133161	71.345985	22.948511	123.427657
	10.909252	29.451735	70.713971	24.701224	124.866929
	10.342805	28.177443	71.819995	22.948511	122.945948
	10.786111	27.221723	70.397964	21.036461	118.656148
	10.392061	28.018156	69.765950	21.355136	119.139242
	11.180161	26.903150	69.133936	21.514474	117.551559
	10.638342	27.062437	70.713971	24.223211	121.999619
	11.081649	28.177443	72.294006	22.789174	123.260622
	10.786111	28.018156	70.871974	23.745199	122.635328
	10.884624	28.336729	70.239960	22.470499	121.047188
	10.761483	32.478178	73.400030	22.789174	128.667382
	10.367433	28.018156	71.345985	21.195799	120.559939
	11.106277	28.018156	70.081957	22.789174	120.889286
	10.367433	27.858870	71.187981	24.860561	123.907412
	11.180161	27.540297	70.713971	22.151823	120.406091
	10.835367	29.133161	76.244093	23.904536	129.281790
	11.155533	27.540297	70.239960	21.673811	119.454068
	10.933880	34.230329	71.503988	24.701224	130.435541
	11.032392	26.584578	68.817928	21.992486	117.394992
	10.958508	31.522459	73.084023	24.223211	128.829693
	10.490573	28.336729	69.133936	22.311161	119.781826
	11.426442	29.133161	71.661992	22.789174	123.584327
	10.613714	28.496015	71.187981	22.151823	121.835820
	11.254046	28.177443	72.926020	24.382548	125.486011
	10.983136	28.814589	72.136002	23.904536	124.855127
	11.451071	28.018156	70.397964	21.833149	120.249268
	11.229417	27.699583	72.926020	22.948511	123.574114
	11.278674	27.858870	70.713971	21.514474	120.087313
	11.254046	28.814589	70.397964	23.904536	123.117088
	10.909252	29.133161	71.345985	23.267186	123.746332
	11.451071	32.478178	74.032044	25.338573	131.848795
	10.736855	27.381010	72.136002	23.107848	122.624861
	11.771236	28.655302	71.977998	22.789174	123.422474
	11.327930	30.088881	71.977998	23.107848	125.174728
	11.697352	29.292448	72.926020	23.426524	125.644991
	11.475699	30.566740	74.348051	26.294599	131.209389
	11.771236	30.407453	71.977998	24.541886	126.927338
	11.500327	30.726026	73.716037	24.223211	128.665275
	11.500327	29.451735	71.503988	21.514474	122.470196
	11.648096	36.301054	76.876107	27.091286	140.268447
	11.106277	30.407453	72.452009	26.135261	128.994724
	11.623468	30.248167	71.977998	24.223211	126.449377
	11.057020	29.770307	71.503988	24.063874	125.338169
	11.623468	28.973875	72.610012	22.948511	124.532398
	11.574211	29.133161	74.506055	23.426524	127.065740
	11.795864	30.088881	72.294006	22.789174	125.172060
	11.598839	31.044600	73.874041	25.179236	130.097876
	11.598839	31.522459	75.296072	27.091286	133.909817
	11.549583	31.044600	72.768016	23.585861	127.398477
	11.352558	33.593183	74.190048	25.657249	133.440480
	11.746608	30.885313	73.558034	23.745199	128.188545
	11.130905	30.407453	73.716037	23.745199	127.868689
	11.746608	30.248167	72.610012	26.294599	129.152778
	11.155533	32.159605	75.928086	26.294599	134.382290
	11.623468	27.221723	69.765950	19.602424	116.590097
	11.426442	29.611021	74.980065	22.948511	127.539597
	11.155533	30.407453	73.716037	24.223211	128.346701
	11.451071	32.956038	74.980065	28.525324	136.461426
	10.859995	31.203886	72.926020	25.179236	129.309142
	11.697352	31.841032	73.716037	23.267186	128.824255
	10.884624	32.796751	75.454076	25.338573	133.589400
	11.771236	30.088881	73.558034	23.904536	127.551450
	11.303302	31.522459	74.822062	26.931949	133.276469
	11.623468	31.203886	77.350118	25.019899	133.573902
	11.451071	31.203886	74.506055	24.382548	130.092489
	11.229417	31.522459	73.084023	24.860561	129.467043
	11.549583	31.044600	74.980065	25.019899	131.044563
	11.032392	31.522459	74.190048	25.975924	131.688430
	11.475699	33.752470	73.242027	24.860561	131.855058
	10.736855	32.796751	75.454076	27.250623	135.501450
	11.524955	32.159605	74.190048	25.179236	131.528888
	11.278674	32.159605	76.244093	24.701224	133.104921
	11.697352	30.088881	73.874041	23.107848	127.070770
	11.845121	29.770307	71.977998	23.745199	125.493505
	11.623468	30.726026	73.400030	26.772611	130.898668
	11.377186	31.681745	73.716037	24.860561	130.258343
	11.327930	31.841032	75.612079	24.701224	132.154335
	11.574211	33.752470	74.980065	25.657249	134.389783
	10.835367	32.000318	74.032044	25.019899	131.052261
	11.845121	30.248167	72.768016	26.135261	129.151444
	11.524955	29.133161	71.819995	22.629836	123.582993
	11.746608	29.133161	71.503988	22.948511	123.585661
	11.352558	30.407453	73.400030	24.223211	128.030694
	11.327930	31.044600	74.348051	24.382548	129.775199
	11.377186	31.203886	75.296072	28.206648	134.706607
	10.859995	30.885313	73.874041	24.860561	129.619914
	11.451071	30.248167	74.032044	25.019899	129.300110
	10.687598	29.611021	73.716037	22.789174	126.116231
	11.401814	30.088881	71.661992	21.673811	123.424683
	11.032392	30.407453	72.136002	25.657249	128.200704
	11.451071	30.088881	71.977998	24.541886	126.608765
	11.303302	31.203886	74.190048	26.135261	131.529195
	11.303302	31.363172	75.296072	25.657249	132.316493
	11.007764	31.044600	74.506055	24.382548	129.933202
	11.057020	31.681745	73.716037	24.701224	130.099006
	11.155533	31.363172	77.350118	25.816586	134.529876
	10.712227	32.159605	74.980065	28.047311	135.186981
	11.032392	32.796751	71.503988	24.063874	128.364613
	10.564458	31.841032	74.032044	24.541886	130.414962
	11.451071	29.929594	72.452009	22.629836	125.011439
	10.786111	30.726026	74.822062	24.382548	129.930636
	11.327930	28.973875	72.136002	24.701224	125.811101
	10.859995	29.770307	71.977998	24.541886	126.290192
	11.130905	29.451735	72.452009	23.585861	125.489605
	10.859995	30.248167	73.716037	24.860561	128.824765
	10.810739	30.407453	71.187981	23.585861	125.181296
	11.057020	33.115324	74.664058	24.701224	132.480605
	10.392061	32.000318	74.348051	26.135261	132.483631
	11.057020	30.885313	76.402096	27.250623	134.538033
	10.392061	30.248167	73.242027	24.701224	128.191417
	11.106277	29.292448	72.136002	22.629836	124.058286
	10.662970	29.451735	71.503988	22.629836	123.585559
	11.081649	29.451735	72.768016	23.585861	125.805611
	10.736855	29.133161	72.768016	25.816586	127.717764
	10.909252	30.885313	73.242027	25.179236	129.306576
	10.884624	29.133161	71.977998	22.311161	123.422321
	10.539830	31.363172	76.718104	23.904536	131.985812
	10.712227	30.088881	71.503988	22.789174	124.382042
	10.244292	32.318891	74.190048	28.525324	135.034263
	10.958508	24.832426	68.817928	19.761761	113.412115
	10.121151	29.451735	72.294006	23.426524	125.172264
	11.155533	30.726026	72.768016	24.541886	128.035929
	10.736855	29.611021	72.768016	23.904536	126.283573
	10.736855	30.088881	72.768016	26.931949	129.788845
	10.786111	28.655302	73.558034	23.745199	125.958534
	10.712227	29.770307	71.661992	23.267186	124.699485
	10.687598	30.407453	72.136002	23.585861	126.129316
	10.392061	29.451735	71.503988	23.107848	124.063571
	10.662970	31.681745	73.558034	25.497911	130.737690
	9.998011	30.566740	73.874041	25.497911	129.938692
	10.933880	28.973875	72.926020	25.657249	127.557143
	10.441317	28.655302	72.136002	23.904536	124.695840
	11.032392	27.540297	73.558034	20.877123	121.975454
	10.761483	27.381010	70.713971	20.717786	118.812767
	10.835367	31.044600	72.294006	25.975924	129.314529
	10.589086	30.248167	71.345985	24.860561	126.454713
	11.057020	29.292448	72.610012	23.745199	125.647659
	10.687598	27.858870	73.084023	22.789174	123.732066
	10.441317	29.929594	72.610012	24.223211	126.762817
	10.933880	28.336729	71.187981	22.948511	122.473221
	10.342805	30.566740	75.138069	27.250623	132.955432
	10.859995	29.292448	72.452009	23.745199	125.489656
	10.318176	27.381010	70.239960	22.470499	120.091469
	10.909252	28.336729	70.397964	23.107848	121.842541
	10.687598	29.292448	72.610012	23.107848	125.010309
	11.032392	27.699583	69.607946	23.426524	120.734053
	10.712227	29.292448	70.871974	22.789174	122.953596
	10.712227	28.973875	71.661992	23.107848	123.743715
	10.367433	31.363172	77.666125	25.975924	135.005221
	10.145780	26.903150	69.765950	21.036461	117.705561
	10.859995	30.088881	71.819995	25.019899	126.928774
	10.441317	30.726026	74.348051	26.294599	131.368676
	10.909252	29.611021	72.452009	24.860561	126.923591
	10.342805	26.743864	69.607946	22.789174	119.140984
	10.859995	29.133161	71.819995	22.789174	123.742330
	10.687598	30.248167	71.503988	21.673811	123.425966
	11.032392	29.292448	73.400030	23.585861	126.278339
	10.712227	30.566740	72.136002	24.860561	127.563303
	10.441317	28.814589	70.555967	23.745199	123.115754
	10.761483	28.336729	71.345985	23.426524	123.109237
	10.293548	28.973875	72.452009	22.789174	124.215058
	10.909252	29.929594	74.190048	23.904536	128.024178
	10.342805	27.221723	70.713971	24.860561	122.796255
	11.155533	28.655302	70.713971	23.267186	122.636459
	10.933880	30.566740	71.977998	25.019899	127.564637
	10.933880	28.814589	71.345985	23.107848	123.268422
	10.909252	30.885313	73.400030	24.223211	128.508554
	10.810739	29.451735	71.819995	22.948511	124.220241
	11.081649	28.973875	72.768016	24.541886	126.283777
	10.441317	29.292448	76.244093	27.409961	132.946502
	10.933880	29.451735	72.452009	23.745199	125.648942
	10.367433	28.018156	71.187981	22.948511	122.154648
	10.983136	29.133161	72.768016	22.470499	124.371676
	10.465945	28.177443	71.345985	22.948511	122.471938
	11.721980	26.903150	68.343918	23.426524	118.673592
	10.933880	28.973875	69.765950	22.311161	121.050985
	10.983136	29.611021	72.768016	23.107848	125.486886
	10.859995	30.088881	73.716037	23.267186	127.072103
	11.057020	29.451735	72.294006	23.745199	125.490939
	11.007764	28.177443	70.871974	25.657249	124.706665
	10.638342	29.611021	76.086090	24.860561	130.557671
	11.057020	30.566740	73.084023	23.904536	127.555299
	10.465945	26.106718	68.501922	21.833149	116.441788
	11.229417	29.611021	71.977998	23.745199	125.334218
	10.909252	29.133161	71.977998	25.816586	126.927746
	11.229417	30.566740	72.294006	25.179236	128.039982
	10.958508	31.522459	73.084023	23.745199	128.351680
	10.983136	29.611021	71.977998	23.745199	125.334218
	11.377186	26.425291	72.452009	22.311161	121.188461
	10.662970	29.292448	72.768016	24.701224	126.761688
	10.983136	30.407453	71.977998	24.860561	127.246013
	10.490573	29.133161	72.294006	24.860561	126.287728
	11.327930	32.000318	74.348051	25.975924	132.324293
	10.786111	31.044600	74.190048	23.585861	128.820508
	11.303302	30.248167	72.768016	22.470499	125.486682
	10.933880	32.318891	72.768016	25.179236	130.266143
	11.278674	29.611021	71.187981	26.613274	127.412276
	10.736855	30.088881	73.716037	25.179236	128.984153
	10.613714	29.451735	73.716037	24.382548	127.550320
	10.810739	29.133161	72.294006	23.107848	124.535016
	10.539830	28.018156	72.294006	23.267186	123.579348
	11.130905	29.929594	75.612079	26.931949	132.473622
	10.195036	30.885313	73.716037	25.338573	129.939923
	11.377186	30.088881	72.136002	23.745199	125.970081
	10.687598	30.566740	72.768016	22.470499	125.805255
	11.229417	27.540297	70.713971	21.992486	120.246753
	10.810739	33.274610	72.926020	27.728636	133.929266
	10.786111	29.929594	72.294006	24.382548	126.606148
	11.081649	29.451735	73.084023	24.223211	126.758969
	10.564458	29.929594	74.980065	24.541886	129.451545
	11.057020	30.088881	72.452009	23.745199	126.286088
	10.367433	29.451735	73.084023	27.569299	130.105056
	11.303302	30.885313	75.138069	25.816586	131.839968
	10.465945	31.681745	74.348051	26.613274	132.643070
	11.106277	30.726026	71.977998	25.019899	127.723924
	10.564458	33.752470	74.822062	25.975924	134.550455
	11.278674	30.566740	73.716037	24.701224	128.984001
	10.933880	29.133161	75.612079	25.338573	130.083814
	11.130905	30.407453	73.242027	26.931949	130.581429
	10.835367	30.566740	72.136002	24.701224	127.403965
	10.835367	29.451735	73.400030	23.426524	126.278288
	11.007764	30.726026	73.874041	24.860561	129.460628
	10.416689	31.363172	72.768016	25.497911	129.629099
	11.081649	29.451735	72.136002	25.497911	127.085648
	10.392061	32.478178	72.294006	24.382548	129.154732
	11.229417	30.566740	74.348051	24.541886	129.456677
	11.327930	27.699583	71.503988	22.948511	122.152082
	11.377186	27.699583	70.397964	21.992486	120.090033
	10.712227	29.292448	71.503988	23.745199	124.541635
	11.032392	30.726026	75.454076	27.091286	133.271388
	11.130905	30.566740	72.926020	24.541886	128.034646
	10.835367	29.611021	72.610012	24.382548	126.603582
	10.835367	29.611021	72.768016	23.426524	125.805561
	10.515202	30.726026	75.928086	24.541886	131.195999
	10.687598	30.248167	72.926020	24.860561	128.034748
	10.392061	33.115324	72.452009	25.657249	131.224581
	10.859995	30.248167	73.242027	25.179236	128.669430
	9.998011	31.363172	74.664058	25.657249	131.684479
	11.130905	28.814589	70.871974	23.267186	122.953749
	10.687598	29.451735	72.294006	24.063874	125.809614
	11.327930	26.903150	70.871974	23.585861	121.360985
	11.130905	30.726026	74.822062	25.179236	130.727324
	10.859995	30.088881	72.768016	23.745199	126.602095
	10.835367	30.407453	72.768016	23.107848	126.283318
	10.712227	31.044600	72.452009	24.860561	128.357169
	10.933880	31.363172	74.506055	27.887974	133.757201
	9.899498	31.363172	73.400030	25.657249	130.420451
	10.687598	29.929594	72.768016	23.585861	126.283471
	10.195036	29.770307	73.084023	23.904536	126.758867
	10.662970	29.611021	76.402096	24.860561	130.873678
	10.786111	30.248167	72.768016	26.453936	129.470119
	10.983136	29.292448	70.555967	23.585861	123.434276
	10.736855	30.407453	72.610012	26.135261	129.152727
	11.081649	32.796751	73.084023	24.541886	130.422660
	10.613714	30.726026	74.980065	24.382548	130.088640
	10.564458	29.292448	72.136002	22.629836	124.058286
	10.613714	28.496015	71.187981	23.585861	123.269858
	10.244292	28.973875	72.768016	25.657249	127.399140
	10.662970	30.407453	74.190048	26.135261	130.732762
	10.145780	27.699583	69.923953	21.673811	119.297347
	10.786111	26.584578	68.659925	20.239773	115.484276
	10.047267	29.770307	73.242027	24.541886	127.554220
	11.180161	31.203886	73.874041	26.453936	131.531863
	10.983136	28.655302	70.871974	22.789174	122.316450
	11.155533	32.478178	72.452009	23.267186	128.197373
	10.736855	29.133161	75.138069	22.629836	126.901066
	10.662970	29.611021	72.610012	24.063874	126.284907
	10.392061	30.726026	72.294006	27.728636	130.748668
	10.342805	29.929594	72.452009	25.338573	127.720177
	10.638342	27.699583	72.136002	23.426524	123.262109
	10.071895	30.726026	71.977998	25.497911	128.201936
	10.909252	28.973875	72.294006	23.904536	125.172417
	10.342805	29.770307	72.610012	26.613274	128.993594
	10.835367	30.566740	73.874041	24.382548	128.823329
	10.539830	30.407453	73.242027	24.701224	128.350704
	10.859995	28.973875	71.345985	24.223211	124.543071
	10.564458	28.814589	71.187981	23.426524	123.429093
	10.465945	28.973875	72.452009	23.107848	124.533732
	10.638342	29.133161	73.874041	24.223211	127.230413
	10.244292	29.611021	72.452009	25.975924	128.038953
	10.638342	28.336729	71.661992	24.223211	124.221932
	10.367433	30.885313	74.190048	24.541886	129.617246
	10.958508	32.796751	72.768016	23.107848	128.672616
	10.441317	32.478178	74.348051	27.250623	134.076853
	10.835367	28.177443	70.713971	24.860561	123.751974
	10.736855	30.407453	73.874041	25.975924	130.257418
	10.441317	29.929594	75.928086	24.701224	130.558904
	10.786111	28.655302	72.768016	24.382548	125.805866
	10.022639	28.496015	70.239960	23.267186	122.003162
	10.662970	28.655302	71.977998	25.338573	125.971874
	10.170408	29.929594	72.452009	24.860561	127.242164
	10.835367	31.203886	72.136002	26.294599	129.634487
	10.342805	29.929594	72.136002	24.382548	126.448144
	11.057020	30.885313	71.661992	22.789174	125.336478
	10.613714	29.929594	74.032044	25.497911	129.459549
	10.736855	28.814589	71.819995	24.063874	124.698457
	10.736855	28.814589	71.661992	25.179236	125.655816
	10.515202	28.814589	73.874041	24.382548	127.071178
	10.490573	30.566740	74.664058	25.657249	130.888047
	10.219664	33.593183	72.294006	25.497911	131.385100
	10.539830	29.611021	72.610012	24.860561	127.081595
	10.121151	30.885313	73.874041	27.409961	132.169315
	11.057020	30.248167	72.452009	23.585861	126.286037
	10.761483	29.292448	72.294006	23.426524	125.012977
	10.859995	30.726026	71.503988	22.789174	125.019188
	10.786111	28.336729	72.452009	23.426524	124.215262
	10.515202	29.133161	72.926020	26.931949	128.991129
	10.736855	28.814589	71.503988	24.860561	125.179138
	10.096523	30.088881	72.610012	24.223211	126.922104
	11.057020	29.929594	73.874041	25.657249	129.460883
	10.318176	29.292448	73.242027	23.904536	126.439011
	11.278674	31.363172	71.819995	24.701224	127.884391
	10.662970	28.973875	71.503988	24.382548	124.860412
	11.106277	30.248167	70.713971	24.541886	125.504024
	10.884624	29.451735	73.084023	24.701224	127.236981
	10.638342	29.929594	74.348051	24.860561	129.138206
	11.007764	28.336729	72.610012	22.948511	123.895252
	10.318176	29.451735	72.294006	24.701224	126.446964
	10.933880	29.292448	75.296072	26.453936	131.042456
	10.367433	28.496015	71.187981	23.426524	123.110520
	11.204789	29.133161	69.133936	21.833149	120.100245
	10.761483	29.611021	72.452009	22.789174	124.852204
	11.130905	32.318891	72.926020	24.541886	129.786797
	11.032392	32.478178	74.348051	29.640686	136.466915
	10.761483	31.363172	74.032044	26.294599	131.689815
	10.416689	29.929594	73.558034	24.382548	127.870176
	10.244292	28.814589	74.664058	23.585861	127.064508
	10.736855	28.496015	71.661992	24.063874	124.221881
	10.465945	28.018156	70.239960	25.019899	123.278015
	11.081649	29.133161	71.819995	25.019899	125.973055
	10.490573	30.248167	72.926020	24.382548	127.556735
	11.032392	30.407453	71.661992	22.948511	125.017956
	10.835367	29.611021	72.294006	24.541886	126.446913
	10.589086	31.203886	72.610012	26.931949	130.745847
	10.933880	29.451735	75.138069	24.860561	129.450364
	10.170408	29.451735	73.084023	25.019899	127.555656
	10.761483	30.088881	72.452009	25.657249	128.198138
	10.342805	29.770307	73.084023	24.382548	127.236879
	11.007764	28.336729	72.768016	24.860561	125.965306
	10.859995	30.566740	72.452009	25.497911	128.516660
	11.130905	29.929594	71.187981	25.179236	126.296811
	10.662970	30.088881	72.610012	24.860561	127.559454
	10.712227	30.248167	73.558034	23.107848	126.914049
	10.712227	29.929594	72.926020	23.904536	126.760150
	10.318176	29.133161	71.977998	24.860561	125.971721
	10.736855	28.973875	71.819995	26.453936	127.247806
	10.219664	30.088881	73.084023	25.019899	128.192802
	10.859995	28.814589	73.716037	23.904536	126.435161
	10.367433	28.973875	72.136002	24.541886	125.651763
	10.983136	30.885313	72.294006	24.541886	127.721205
	10.761483	29.929594	75.296072	26.135261	131.360927
	10.835367	30.566740	71.187981	23.267186	125.021907
	10.859995	29.929594	71.029978	24.063874	125.023445
	10.268920	29.770307	72.452009	24.860561	127.082878
	10.933880	30.088881	73.242027	24.860561	128.191468
	10.416689	30.248167	72.768016	27.728636	130.744819
	10.884624	28.655302	72.452009	24.701224	125.808535
	10.736855	29.611021	72.136002	24.382548	126.129572
	11.081649	28.973875	74.190048	24.541886	127.705809
	11.057020	31.522459	74.348051	25.657249	131.527759
	10.736855	30.248167	72.294006	25.019899	127.562071
	10.859995	28.018156	70.239960	23.107848	121.365965
	10.293548	34.389616	75.138069	27.250623	136.778308
	10.786111	28.018156	70.871974	22.948511	121.838641
	10.367433	29.451735	72.768016	24.382548	126.602299
	10.983136	28.018156	71.977998	22.948511	122.944665
	10.786111	31.044600	77.350118	25.975924	134.370641
	11.130905	27.699583	71.661992	25.975924	125.337498
	10.835367	30.088881	71.503988	25.179236	126.772105
	10.761483	30.407453	72.294006	23.904536	126.605995
	10.662970	30.566740	73.242027	24.382548	128.191315
	10.441317	32.000318	74.664058	25.497911	132.162287
	10.835367	29.451735	72.452009	26.613274	128.517017
	10.244292	28.336729	72.136002	25.338573	125.811305
	11.007764	28.018156	72.294006	24.063874	124.376035
	10.638342	28.655302	71.503988	24.063874	124.223163
	10.761483	28.177443	70.397964	22.789174	121.364580
	10.638342	29.292448	71.977998	23.585861	124.856308
	10.465945	30.407453	72.294006	24.860561	127.562020
	10.909252	30.407453	74.664058	26.931949	132.003460
	10.244292	33.115324	73.242027	25.179236	131.536586
	10.909252	30.407453	73.084023	24.382548	127.874025
	10.219664	30.726026	74.980065	25.179236	130.885327
	10.761483	29.929594	73.400030	25.816586	129.146210
	10.416689	29.451735	71.819995	27.728636	129.000366
	10.515202	28.655302	71.819995	24.382548	124.857846
	10.589086	29.770307	73.084023	24.223211	127.077542
	10.835367	28.018156	70.555967	22.948511	121.522634
	10.564458	29.451735	72.768016	24.541886	126.761637
	10.613714	30.566740	72.294006	27.091286	129.952032
	10.859995	31.044600	75.454076	26.135261	132.633936
	10.219664	31.363172	71.819995	22.629836	125.813003
	10.687598	28.655302	70.555967	22.311161	121.522430
	10.293548	28.973875	71.029978	24.063874	124.067726
	10.761483	27.699583	71.345985	25.338573	124.384141
	10.490573	30.566740	74.822062	26.135261	131.524063
	10.810739	28.177443	72.610012	24.382548	125.170003
	10.342805	29.929594	72.452009	25.179236	127.560839
	10.318176	29.929594	73.084023	23.904536	126.918153
	10.564458	28.655302	71.819995	24.382548	124.857846
	9.924126	28.973875	68.975932	22.948511	120.898318
	10.589086	30.088881	72.610012	25.179236	127.878129
	10.096523	26.903150	72.136002	24.382548	123.421701
	10.736855	28.655302	74.980065	23.267186	126.902553
	10.441317	28.655302	71.819995	22.311161	122.786458
	10.736855	27.699583	70.081957	23.426524	121.208063
	10.539830	30.088881	72.610012	26.613274	129.312166
	10.318176	30.088881	72.610012	24.701224	127.400116
	10.539830	29.611021	71.819995	24.063874	125.494889
	9.973383	30.407453	70.871974	22.151823	123.431251
	10.736855	29.929594	72.136002	24.382548	126.448144
	10.564458	30.407453	74.190048	27.409961	132.007462
	10.933880	29.133161	71.977998	24.701224	125.812383
	10.638342	29.133161	72.294006	24.223211	125.650378
	10.564458	29.451735	72.294006	24.382548	126.128289
	10.465945	30.407453	73.242027	25.179236	128.828716
	10.392061	28.018156	70.871974	26.772611	125.662741
	11.130905	29.929594	72.452009	25.019899	127.401502
	10.170408	28.018156	70.713971	22.470499	121.202625
	10.983136	31.841032	76.718104	26.931949	135.491084
	10.318176	31.841032	71.661992	23.426524	126.929547
	10.958508	28.973875	70.713971	25.338573	125.026419
	10.761483	29.133161	73.716037	25.019899	127.869097
	10.884624	28.177443	71.661992	24.063874	123.903308
	10.613714	27.858870	70.397964	24.063874	122.320706
	10.441317	28.177443	71.345985	23.745199	123.268625
	10.589086	29.451735	72.768016	25.338573	127.558324
	9.998011	29.611021	74.664058	25.975924	130.251002
	10.687598	30.566740	73.084023	27.091286	130.742049
	9.800986	31.203886	72.610012	25.816586	129.630484
	10.835367	29.451735	71.345985	23.426524	124.224243
	10.564458	28.973875	74.190048	25.019899	128.183821
	10.761483	29.292448	73.242027	24.860561	127.395036
	10.687598	29.929594	73.400030	27.091286	130.420910
	10.859995	28.018156	71.345985	24.223211	123.587351
	10.539830	29.292448	76.086090	24.701224	130.079761
	10.170408	30.407453	73.242027	25.497911	129.147391
	10.736855	32.159605	73.400030	26.931949	132.491583
	9.973383	33.274610	72.294006	25.019899	130.588515
	10.761483	29.451735	72.136002	24.382548	125.970285
	10.564458	28.655302	69.133936	23.267186	121.056424
	10.687598	29.611021	72.452009	24.701224	126.764253
	10.515202	27.540297	71.819995	23.745199	123.105490
	10.687598	27.858870	72.926020	23.107848	123.892738
	10.662970	29.611021	72.768016	24.701224	127.080261
	10.121151	28.177443	71.187981	24.382548	123.747972
	10.613714	29.292448	71.661992	24.860561	125.815001
	10.096523	29.611021	73.084023	24.223211	126.918255
	10.589086	30.726026	73.242027	25.497911	129.465964
	10.121151	32.796751	72.768016	25.497911	131.062678
	10.909252	29.611021	72.926020	26.453936	128.990977
	10.465945	29.929594	75.454076	24.701224	130.084893
	10.662970	29.611021	72.926020	24.541886	127.078927
	10.490573	28.814589	71.977998	23.585861	124.378448
	10.441317	30.885313	74.980065	27.250623	133.116001
	10.638342	30.407453	73.400030	26.931949	130.739432
	10.047267	29.770307	71.819995	25.179236	126.769539
	10.564458	29.133161	72.136002	23.904536	125.173699
	10.022639	31.203886	73.084023	24.701224	128.989133
	10.736855	28.973875	73.558034	23.904536	126.436445
	10.367433	29.133161	73.400030	26.931949	129.465140
	10.835367	28.655302	71.029978	24.701224	124.386503
	10.465945	29.451735	72.294006	26.294599	128.040339
	10.515202	28.814589	72.452009	24.382548	125.649146
	10.761483	29.292448	74.032044	23.267186	126.591678
	10.096523	29.133161	72.294006	23.585861	125.013028
	10.589086	28.973875	71.661992	24.223211	124.859078
	10.121151	33.115324	72.926020	28.206648	134.247992
	10.884624	28.336729	71.503988	23.585861	123.426578
	10.712227	29.133161	70.713971	23.107848	122.954981
	10.835367	30.407453	73.558034	25.657249	129.622736
	10.096523	28.973875	73.716037	25.179236	127.869148
	10.810739	28.336729	72.452009	26.772611	127.561349
	10.662970	30.726026	73.874041	26.294599	130.894666
	10.539830	28.177443	71.661992	23.107848	122.947283
	10.416689	28.336729	72.926020	22.948511	124.211260
	10.318176	30.566740	74.032044	25.975924	130.574707
	10.761483	29.133161	71.187981	26.453936	126.775079
	10.096523	32.318891	71.345985	25.179236	128.844112
	10.736855	28.496015	71.345985	22.948511	122.790511
	10.268920	29.929594	73.084023	24.860561	127.874178
	10.761483	29.451735	72.926020	24.860561	127.238315
	10.539830	27.381010	71.029978	25.338573	123.749561
	10.613714	29.292448	76.560100	25.816586	131.669134
	10.392061	31.203886	74.190048	26.135261	131.529195
	10.293548	28.336729	70.871974	24.382548	123.591252
	10.539830	30.248167	72.768016	25.019899	128.036082
	9.998011	30.566740	72.926020	25.497911	128.990671
	10.958508	27.062437	70.239960	22.470499	119.772896
	10.244292	29.451735	72.294006	25.816586	127.562326
	11.057020	26.743864	69.607946	22.151823	118.503634
	10.441317	29.770307	74.032044	24.541886	128.344237
	10.589086	28.973875	73.084023	23.745199	125.803096
	10.589086	29.292448	70.871974	24.382548	124.546971
	10.219664	29.292448	72.926020	28.206648	130.425116
	10.662970	29.451735	72.452009	24.860561	126.764305
	10.096523	31.681745	73.874041	24.860561	130.416347
	10.761483	30.885313	73.558034	25.975924	130.419270
	10.096523	30.726026	72.136002	24.701224	127.563252
	10.933880	28.177443	70.397964	25.657249	124.232654
	10.367433	28.496015	74.032044	25.975924	128.503983
	10.712227	29.770307	72.452009	25.975924	128.198240
	10.416689	30.248167	72.768016	25.338573	128.354757
	10.712227	25.310286	69.607946	21.195799	116.114030
	10.638342	29.929594	73.874041	27.409961	131.213596
	10.244292	28.336729	72.452009	25.338573	126.127312
	10.515202	30.088881	72.768016	25.179236	128.036133
	10.096523	30.248167	73.084023	23.904536	127.236726
	10.810739	30.088881	73.558034	25.179236	128.826150
	10.244292	30.566740	71.029978	25.816586	127.413303
	10.687598	28.814589	71.029978	24.541886	124.386452
	10.490573	29.929594	74.348051	28.206648	132.484294
	10.786111	28.814589	73.400030	24.382548	126.597167
	10.416689	29.451735	72.452009	24.382548	126.286292
	10.687598	29.451735	72.610012	24.701224	126.762970
	10.712227	29.292448	73.558034	24.382548	127.233030
	10.318176	30.248167	72.452009	27.250623	129.950799
	10.638342	29.929594	71.819995	25.497911	127.247500
	10.022639	30.407453	71.819995	23.267186	125.494635
	10.638342	27.381010	71.029978	22.789174	121.200161
	10.293548	28.973875	74.822062	24.701224	128.497160
	11.032392	28.018156	71.977998	25.975924	125.972078
	10.465945	29.133161	70.555967	24.701224	124.390352
	11.032392	28.177443	71.977998	24.541886	124.697327
	10.490573	29.451735	72.294006	24.860561	126.606301
	10.662970	32.000318	71.345985	24.860561	128.206864
	10.490573	29.292448	72.452009	23.745199	125.489656
	10.367433	30.885313	72.768016	25.497911	129.151240
	10.465945	29.133161	73.558034	25.657249	128.348444
	9.874870	28.655302	72.926020	25.816586	127.397908
	10.835367	28.655302	72.136002	24.063874	124.855177
	10.145780	29.451735	71.503988	23.585861	124.541584
	10.589086	28.655302	72.926020	24.860561	126.441883
	10.539830	30.407453	73.558034	27.250623	131.216110
	10.933880	27.858870	71.503988	24.063874	123.426731
	10.810739	29.133161	72.294006	23.585861	125.013028
	10.589086	31.044600	74.664058	22.948511	128.657169
	10.490573	28.496015	70.871974	23.585861	122.953851
	10.712227	31.841032	73.084023	28.684661	133.609716
	10.736855	29.929594	72.926020	25.179236	128.034850
	10.145780	27.221723	72.294006	23.267186	122.782915
	10.318176	28.814589	71.187981	24.063874	124.066443
	9.924126	28.655302	71.977998	24.382548	125.015849
	10.515202	28.336729	71.819995	27.091286	127.248010
	10.170408	30.407453	74.822062	25.816586	131.046101
	10.884624	29.929594	73.084023	25.019899	128.033516
	10.293548	30.885313	73.558034	25.975924	130.419270
	10.958508	32.159605	71.503988	24.860561	128.524154
	10.687598	28.655302	71.819995	25.019899	125.495196
	10.638342	27.381010	72.136002	23.904536	123.421548
	10.662970	29.451735	73.084023	27.250623	129.786381
	10.564458	28.336729	71.661992	24.223211	124.221932
	10.638342	28.018156	74.664058	23.585861	126.268075
	10.170408	31.363172	74.190048	25.657249	131.210468
	10.589086	30.248167	71.345985	25.497911	127.092063
	9.948754	29.929594	72.452009	27.250623	129.632227
	10.810739	28.336729	70.713971	22.789174	121.839873
	10.096523	31.841032	76.876107	27.250623	135.967762
	10.662970	27.858870	72.452009	24.541886	124.852765
	10.515202	29.929594	72.926020	25.497911	128.353524
	10.687598	29.451735	73.874041	27.091286	130.417061
	10.465945	29.292448	73.084023	25.816586	128.193057
	10.687598	29.929594	71.819995	25.179236	126.928825
	10.490573	28.336729	70.555967	24.541886	123.434582
	10.441317	29.611021	72.768016	24.860561	127.239598
	10.933880	33.433897	74.980065	29.800024	138.213986
	10.047267	30.407453	73.558034	26.294599	130.260086
	10.539830	30.726026	72.452009	24.382548	127.560584
	10.022639	26.903150	73.242027	22.151823	122.297000
	10.761483	28.973875	73.874041	26.453936	129.301851
	10.736855	26.903150	68.817928	23.585861	119.306940
	10.761483	28.336729	71.029978	24.382548	123.749255
	10.736855	27.062437	70.871974	23.585861	121.520272
	10.687598	29.292448	71.029978	26.931949	127.254374
	10.465945	29.292448	72.452009	24.382548	126.127006
	10.613714	28.018156	71.345985	23.107848	122.471989
	10.638342	32.000318	73.716037	24.860561	130.576916
	10.564458	27.699583	71.029978	24.541886	123.271447
	10.638342	30.088881	72.136002	25.657249	127.882131
	10.244292	30.407453	73.558034	26.294599	130.260086
	10.613714	29.133161	72.926020	23.585861	125.645042
	10.047267	30.088881	73.558034	24.382548	128.029463
	10.712227	28.655302	71.661992	26.453936	126.771230
	10.096523	29.451735	71.187981	24.541886	125.181602
	10.835367	28.177443	71.029978	24.382548	123.589968
	10.219664	30.566740	72.452009	24.541886	127.560635
	11.032392	28.496015	71.503988	23.585861	123.585865
	10.736855	26.903150	71.819995	24.382548	123.105694
	10.638342	28.814589	72.610012	25.338573	126.763174
	10.441317	29.292448	75.454076	27.569299	132.315822
	10.195036	28.496015	72.294006	24.701224	125.491245
	10.441317	29.451735	71.819995	24.382548	125.654278
	10.047267	27.221723	72.452009	23.585861	123.259593
	10.687598	28.177443	71.187981	24.063874	123.429297
	10.318176	31.363172	71.661992	27.728636	130.753800
	10.736855	28.814589	70.871974	24.701224	124.387786
	10.244292	31.681745	74.348051	25.497911	131.527708
	10.761483	28.336729	72.768016	23.585861	124.690606
	10.786111	28.336729	73.084023	26.294599	127.715351
	10.983136	28.814589	71.819995	27.409961	128.044545
	10.736855	27.858870	73.084023	23.904536	124.847429
	10.736855	28.973875	72.768016	24.860561	126.602452
	10.786111	26.903150	68.343918	21.514474	116.761542
	10.342805	27.540297	71.029978	24.223211	122.793485
	10.859995	29.929594	73.242027	27.728636	130.900257
	9.924126	30.726026	71.187981	24.541886	126.455894
	10.515202	29.292448	72.926020	24.063874	126.282341
	9.948754	30.407453	73.558034	26.135261	130.100748
	10.835367	29.611021	74.348051	25.816586	129.775658
	10.268920	30.248167	73.242027	27.250623	130.740817
	10.638342	28.336729	71.503988	26.135261	125.975978
	10.564458	28.973875	72.294006	25.179236	126.447117
	10.662970	28.814589	72.294006	24.860561	125.969155
	10.318176	29.451735	73.874041	24.382548	127.708324
	10.293548	30.407453	72.926020	23.904536	127.238009
	10.465945	31.681745	73.874041	27.569299	133.125085
	10.096523	27.699583	71.819995	27.409961	126.929539
	10.539830	28.336729	72.452009	25.019899	125.808637
	9.850242	28.973875	73.716037	24.223211	126.913123
	10.465945	28.655302	72.294006	24.382548	125.331856
	9.677845	29.292448	72.768016	25.179236	127.239700
	10.589086	28.018156	75.138069	27.091286	130.247511
	10.416689	29.451735	72.136002	25.019899	126.607635
	10.564458	29.451735	70.555967	23.585861	123.593563
	10.342805	29.292448	72.294006	25.019899	126.606352
	10.392061	30.566740	73.242027	25.497911	129.306678
	10.342805	29.929594	71.661992	28.047311	129.638897
	10.268920	28.336729	72.452009	25.816586	126.605324
	10.367433	30.088881	73.716037	25.657249	129.462166
	10.022639	29.292448	74.190048	25.338573	128.821069
	10.392061	29.292448	73.084023	25.657249	128.033720
	10.071895	30.566740	73.084023	29.003336	132.654099
	10.539830	28.336729	73.558034	25.816586	127.711349
	10.022639	27.381010	70.713971	23.107848	121.202829
	10.662970	30.885313	71.503988	25.179236	127.568537
	10.170408	28.336729	71.029978	23.585861	122.952568
	10.638342	29.292448	72.136002	24.860561	126.289011
	10.441317	27.381010	75.138069	25.179236	127.698315
	10.490573	28.814589	72.768016	27.728636	129.311240
	10.342805	27.858870	70.713971	25.179236	123.752076
	10.342805	28.655302	71.661992	23.904536	124.221830
	10.293548	29.451735	72.926020	24.541886	126.919640
	10.170408	29.451735	71.187981	25.179236	125.818952
	10.465945	31.203886	73.242027	27.409961	131.855874
	9.899498	29.929594	72.926020	26.135261	128.990875
	10.392061	26.266004	72.610012	23.267186	122.143203
	9.850242	26.903150	70.713971	23.745199	121.362319
	10.293548	27.699583	69.607946	23.426524	120.734053
	9.948754	29.451735	72.926020	26.294599	128.672353
	10.859995	31.363172	75.138069	27.728636	134.229877
	10.342805	27.540297	73.084023	24.701224	125.325543
	10.416689	28.814589	71.819995	24.860561	125.495145
	10.244292	31.681745	73.558034	25.975924	131.215702
	10.638342	28.814589	74.822062	25.179236	128.815886
	10.465945	32.956038	74.506055	27.569299	135.031391
	10.441317	30.566740	72.136002	26.294599	128.997341
	10.416689	28.336729	72.610012	26.135261	127.082003
	9.948754	29.292448	72.452009	24.860561	126.605018
	10.392061	29.611021	72.294006	25.497911	127.402938
	9.776358	30.088881	73.874041	27.409961	131.372882
	10.909252	30.088881	72.926020	26.613274	129.628174
	9.948754	28.655302	73.558034	25.975924	128.189259
	10.638342	29.451735	71.819995	24.541886	125.813616
	10.465945	31.203886	72.136002	24.860561	128.200449
	10.761483	28.655302	71.187981	24.701224	124.544507
	10.293548	30.566740	72.452009	26.294599	129.313347
	10.712227	28.973875	72.452009	24.860561	126.286445
	10.318176	27.381010	71.819995	23.904536	123.105541
	10.268920	30.566740	74.348051	26.613274	131.528064
	10.318176	29.292448	75.454076	24.860561	129.607085
	10.170408	28.973875	73.084023	27.569299	129.627196
	10.564458	32.159605	73.716037	28.206648	134.082290
	9.899498	31.363172	73.084023	27.409961	131.857157
	10.490573	29.451735	73.400030	25.497911	128.349675
	9.677845	29.929594	75.138069	25.975924	131.043586
	10.638342	29.133161	72.926020	24.541886	126.601067
	10.121151	29.292448	71.819995	25.816586	126.929029
	10.638342	29.292448	73.716037	28.684661	131.693146
	10.342805	27.699583	71.187981	23.745199	122.632763
	10.441317	25.469572	68.817928	22.311161	116.598661
	10.367433	32.159605	75.296072	27.250623	134.706300
	10.589086	32.000318	74.664058	27.728636	134.393012
	10.465945	30.726026	75.612079	28.684661	135.022766
	10.047267	31.681745	73.558034	26.453936	131.693715
	10.219664	28.018156	71.187981	23.107848	122.313986
	9.899498	30.885313	77.508121	26.453936	134.847370
	10.515202	30.726026	74.032044	26.931949	131.690019
	9.825614	28.973875	71.029978	27.887974	127.891826
	10.441317	29.133161	72.452009	25.816586	127.401757
	9.850242	27.540297	71.029978	22.789174	121.359448
	10.490573	27.540297	71.977998	24.382548	123.900843
	10.096523	28.973875	72.294006	24.701224	125.969104
	10.687598	29.451735	72.294006	27.409961	129.155701
	10.367433	29.292448	73.716037	25.497911	128.506396
	10.589086	30.407453	72.136002	24.223211	126.766666
	10.342805	31.203886	73.400030	27.250623	131.854539
	10.564458	25.947432	70.555967	23.745199	120.248597
	10.367433	28.814589	72.768016	25.816586	127.399191
	10.071895	29.451735	74.822062	26.294599	130.568395
	10.416689	28.496015	71.977998	25.975924	126.449938
	9.825614	28.655302	71.345985	24.860561	124.861847
	10.662970	28.655302	70.239960	23.107848	122.003111
	9.899498	28.814589	72.768016	23.745199	125.327803
	10.958508	30.566740	72.926020	24.541886	128.034646
	10.293548	29.451735	72.294006	27.887974	129.633713
	10.465945	29.292448	73.242027	26.453936	128.988411
	10.490573	28.336729	75.454076	24.701224	128.492028
	10.441317	28.814589	71.977998	24.541886	125.334473
	10.392061	28.177443	71.029978	24.860561	124.067981
	10.244292	28.655302	72.136002	27.569299	128.360602
	10.367433	29.611021	72.452009	25.497911	127.560941
	10.047267	29.611021	71.029978	25.816586	126.457584
	10.318176	31.363172	73.084023	26.135261	130.582456
	9.800986	29.292448	72.136002	25.338573	126.767024
	10.515202	30.248167	74.822062	28.684661	133.754890
	9.825614	30.566740	74.348051	27.250623	132.165414
	10.589086	28.018156	71.503988	25.497911	125.020055
	10.170408	27.381010	72.294006	24.382548	124.057564
	10.342805	28.655302	72.452009	24.541886	125.649197
	10.195036	28.496015	71.345985	26.931949	126.773949
	10.318176	28.973875	71.977998	25.179236	126.131110
	10.293548	28.496015	71.187981	25.179236	124.863233
	10.022639	29.451735	73.874041	25.657249	128.983024
	10.515202	29.770307	71.819995	23.904536	125.494839
	9.899498	29.133161	71.819995	24.223211	125.176368
	10.761483	28.814589	74.032044	26.772611	129.619244
	10.170408	29.133161	72.926020	28.206648	130.265829
	10.786111	28.814589	71.345985	25.019899	125.180472
	10.145780	28.177443	72.452009	24.541886	125.171338
	10.465945	29.929594	72.452009	25.179236	127.560839
	10.367433	28.018156	73.242027	24.541886	125.802069
	10.268920	29.292448	73.084023	28.047311	130.423782
	10.564458	29.929594	69.923953	24.223211	124.076758
	9.677845	29.611021	72.610012	25.975924	128.196957
	10.392061	27.699583	72.294006	24.860561	124.854150
	9.776358	28.973875	74.664058	25.497911	129.135844
	10.318176	29.292448	72.136002	25.179236	126.607686
	9.653217	27.540297	71.977998	25.657249	125.175544
	10.515202	28.655302	73.084023	26.135261	127.874586
	10.318176	30.566740	73.400030	26.453936	130.420706
	10.441317	28.973875	70.713971	24.382548	124.070394
	10.342805	31.363172	72.768016	25.497911	129.629099
	10.219664	29.770307	72.926020	26.294599	128.990926
	10.268920	30.088881	72.136002	27.091286	129.316169
	9.603961	28.814589	71.503988	25.019899	125.338475
	10.293548	28.018156	71.187981	23.585861	122.791998
	9.653217	28.018156	73.084023	24.063874	125.166053
	10.515202	29.451735	72.926020	25.975924	128.353678
	9.998011	30.566740	74.506055	29.800024	134.872818
	10.613714	28.655302	71.503988	25.019899	125.179189
	10.342805	29.451735	72.768016	24.701224	126.920974
	10.441317	28.973875	71.661992	23.745199	124.381065
	10.121151	30.248167	71.977998	24.701224	126.927389
	10.416689	28.655302	72.452009	26.613274	127.720585
	10.342805	27.062437	74.348051	24.860561	126.271049
	9.973383	27.540297	71.503988	23.585861	122.630145
	10.268920	28.336729	69.923953	24.382548	122.643231
	9.554704	29.133161	72.926020	25.657249	127.716430
	10.465945	29.292448	72.294006	27.409961	128.996415
	10.096523	30.248167	72.768016	27.728636	130.744819
	10.662970	29.292448	72.452009	26.294599	128.039056
	10.145780	32.159605	72.294006	25.657249	130.110859
	10.564458	28.496015	72.926020	23.904536	125.326571
	10.293548	29.770307	72.926020	25.497911	128.194238
	10.342805	28.496015	70.713971	25.338573	124.548559
	10.367433	31.363172	74.190048	30.118699	135.671919
	9.899498	27.699583	72.136002	25.497911	125.333496
	10.195036	28.973875	74.506055	24.701224	128.181153
	9.727101	29.611021	72.452009	25.019899	127.082929
	10.121151	28.814589	71.345985	24.701224	124.861796
	9.825614	29.292448	72.768016	28.365986	130.426450
	10.268920	29.451735	73.084023	25.975924	128.511681
	9.702473	29.611021	69.923953	23.585861	123.120835
	10.416689	29.133161	71.819995	24.701224	125.654380
	9.874870	28.496015	72.452009	25.338573	126.286598
	11.081649	27.699583	71.029978	27.409961	126.139522
	10.219664	29.611021	73.558034	26.294599	129.463653
	10.416689	28.814589	73.242027	25.497911	127.554526
