LabVIEW Measurement	
Writer_Version	2
Reader_Version	2
Separator	Tab
Decimal_Separator	.
Multi_Headings	No
X_Columns	No
Time_Pref	Absolute
Operator	lvuser
Date	2021/05/25
Time	15:24:36.918133062
***End_of_Header***	
	
Channels	5					
Samples	2000	2000	2000	2000	2000	
Date	2021/05/25	2021/05/25	2021/05/25	2021/05/25	2021/05/25	
Time	15:24:36.9181331120585883856	15:24:36.918133062	15:24:36.918133062	15:24:36.918133062	15:24:36.918133062	
Y_Unit_Label	Volts	Volts	Volts	Volts	Volts	
X_Dimension	Time	Time	Time	Time	Time	
X0	0.0000000000000000E+0	0.0000000000000000E+0	0.0000000000000000E+0	0.0000000000000000E+0	0.0000000000000000E+0	
Delta_X	0.001000	0.001000	0.001000	0.001000	0.001000	
***End_of_Header***						
X_Value	cisnienieKomoraGorna	sila1	sila2	sila3	sila1 1	Comment
	4.456681	-0.653414	42.431344	6.218074	47.996004	Masa: 0.00 [kg]\09Pozycja Y 5.00 [m]\09Pozycja Z 2.71 [m]\0A
	1.624446	-2.883425	41.957334	3.668674	42.742582
	2.018496	-1.449847	42.747351	3.509336	44.806841
	1.525933	-2.724139	41.799330	3.828011	42.903203
	2.067752	-4.317003	40.535302	4.306024	40.524322
	0.984115	-3.998431	41.641327	3.349999	40.992895
	1.821471	-3.361285	40.851309	2.712649	40.202673
	0.984115	-1.290560	44.011379	5.102711	47.823530
	1.501305	-4.317003	41.641327	2.712649	40.036972
	1.427421	-2.405565	41.325320	4.306024	43.225778
	1.673702	-2.246279	41.641327	2.393974	41.789021
	1.649074	-3.998431	42.431344	4.306024	42.738937
	1.747587	-3.042711	41.799330	2.393974	41.150592
	1.575190	-2.246279	43.695372	2.393974	43.843067
	1.427421	-5.909868	39.745285	0.481924	34.317340
	1.649074	-4.476290	41.483323	1.915961	38.922994
	1.501305	-2.086993	41.641327	3.349999	42.904333
	1.575190	-5.113436	39.587281	1.119274	35.593119
	1.698330	-3.520571	41.167316	2.393974	40.040719
	1.895355	-3.042711	40.535302	3.190661	40.683252
	1.747587	-4.157717	41.483323	2.712649	40.038255
	1.969240	-1.609133	42.115337	4.624699	45.130903
	1.008743	-3.679858	42.273341	1.756624	40.350107
	2.018496	-7.184160	36.585215	-0.633439	28.767615
	0.934858	-3.998431	40.693306	3.190661	39.885536
	1.969240	-0.494128	41.957334	3.668674	45.131880
	0.836346	-3.201998	42.273341	3.828011	42.899354
	1.895355	-3.998431	40.693306	0.959936	37.654811
	1.205768	-1.290560	41.799330	3.031324	43.540094
	1.698330	-3.520571	42.115337	5.580724	44.175490
	1.698330	-3.679858	40.535302	2.393974	39.249418
	1.452049	-3.679858	41.957334	1.915961	40.193437
	1.870727	-6.228441	40.535302	0.322586	34.629447
	1.796843	-5.432009	39.903288	0.959936	35.431215
	2.043124	-4.476290	42.905355	3.987349	42.416413
	1.919983	-4.794863	41.483323	1.915961	38.604421
	2.018496	-3.042711	43.063358	1.597286	41.617933
	1.181140	-4.157717	42.589348	2.234636	40.666267
	1.747587	-4.476290	43.379365	3.031324	41.934399
	0.885602	-3.520571	42.273341	4.306024	43.058793
	1.501305	-3.998431	44.169383	3.190661	43.361613
	0.910230	-3.839144	41.799330	2.712649	40.672835
	1.747587	-3.679858	44.643393	3.349999	44.313534
	1.205768	-2.883425	42.589348	3.190661	42.896584
	1.698330	-2.086993	43.063358	1.756624	42.732989
	1.353536	-3.201998	41.799330	1.756624	40.353956
	1.796843	-2.405565	46.381432	4.465361	48.441227
	1.575190	-3.679858	40.693306	3.190661	40.204109
	1.427421	-1.609133	45.117404	4.306024	47.814294
	1.525933	-2.724139	42.589348	4.943374	44.808583
	1.427421	-1.768420	41.957334	2.553311	42.742225
	1.599818	-3.520571	41.957334	3.349999	41.786761
	1.279652	-3.042711	43.221362	2.712649	42.891299
	1.649074	-2.564852	40.851309	0.959936	39.246393
	1.575190	-3.201998	41.799330	3.668674	42.266006
	2.437174	-1.768420	42.905355	6.058736	47.195671
	1.919983	-1.290560	41.167316	3.349999	43.226755
	2.166265	-4.157717	41.009313	0.959936	37.811532
	1.476677	-4.476290	39.587281	0.800599	35.911590
	2.117009	-2.405565	40.061292	0.481924	38.137650
	1.673702	-3.679858	39.745285	5.102711	41.168138
	1.870727	-4.317003	40.377299	0.800599	36.860894
	1.082627	-2.564852	40.535302	3.349999	41.320449
	1.747587	-1.449847	43.221362	5.262049	47.033564
	1.033371	-3.042711	41.009313	2.712649	40.679250
	2.412546	-4.157717	40.219295	0.163249	36.224827
	1.698330	-1.927706	39.903288	1.437949	39.413531
	2.215521	-3.201998	41.957334	3.031324	41.786659
	1.476677	-3.201998	39.271274	3.668674	39.737949
	1.969240	-0.016268	41.957334	2.871986	44.813052
	1.279652	-2.405565	41.483323	3.828011	42.905769
	1.476677	-3.201998	41.325320	3.349999	41.473320
	0.984115	2.691602	42.115337	5.262049	50.068988
	1.378165	0.461591	45.275407	6.536749	52.273747
	1.673702	-3.998431	40.535302	1.278611	37.815483
	1.525933	-1.768420	40.693306	2.234636	41.159522
	1.722958	-2.564852	42.431344	6.058736	45.925228
	1.846099	-2.724139	41.799330	3.509336	42.584528
	2.067752	-2.405565	40.377299	0.481924	38.453657
	1.722958	-3.839144	41.167316	2.075299	39.403471
	1.846099	-3.361285	41.325320	3.190661	41.154696
	1.402793	-3.361285	43.379365	6.218074	46.236154
	1.722958	-4.476290	40.693306	1.915961	38.132977
	1.304280	-1.131274	41.641327	3.668674	44.178727
	1.673702	-3.839144	40.377299	5.262049	41.800203
	1.402793	-2.724139	41.167316	2.393974	40.837151
	1.944612	-2.883425	41.325320	2.871986	41.313881
	1.378165	-2.883425	41.957334	3.190661	42.264570
	1.993868	-3.679858	39.745285	2.075299	38.140726
	1.649074	-4.476290	41.167316	4.465361	41.156387
	2.117009	-3.839144	41.009313	2.234636	39.404805
	1.402793	-1.768420	40.535302	2.871986	41.638869
	2.240149	-2.724139	42.273341	4.306024	43.855226
	1.599818	-5.113436	40.219295	1.597286	36.703145
	2.067752	-1.768420	41.957334	2.234636	42.423550
	1.796843	-3.201998	41.641327	3.349999	41.789327
	2.215521	-1.290560	44.011379	5.262049	47.982868
	2.363290	-1.609133	42.747351	5.740061	46.878279
	4.358168	-0.653414	45.275407	5.899399	50.521392
	6.180650	0.143018	46.539435	5.421386	52.103840
	9.037514	1.576597	47.013446	6.696086	55.286129
	12.756362	5.240187	52.227561	10.998199	68.465946
	16.352069	7.788771	55.229628	12.591574	75.609972
	19.430586	10.337354	55.861642	13.866274	80.065270
	22.533731	15.115949	61.075757	17.690373	93.882080
	24.725635	18.460966	64.235827	23.107848	105.804642
	26.154067	22.443129	69.449943	24.223211	116.116282
	28.937046	30.566740	74.032044	28.206648	132.805432
	33.173086	33.752470	81.458208	33.464786	148.675465
	38.074086	37.893919	86.830328	36.651536	161.375783
	38.615905	48.088255	94.572499	44.618411	187.279165
	46.693935	51.911131	104.842727	47.964499	204.718356
	52.875599	59.875456	110.688856	54.816011	225.380323
	59.968505	70.229078	119.695056	62.145536	252.069670
	65.460582	74.848387	127.911238	67.563011	270.322636
	73.292334	83.768431	140.077507	73.777174	297.623112
	78.882925	95.077773	146.081640	79.831998	320.991411
	87.650549	98.900649	155.561850	84.930798	339.393297
	94.250896	108.935698	163.620029	93.535024	366.090750
	102.033396	120.722899	174.206263	99.589849	394.519011
	107.131426	129.165084	184.476491	106.600699	420.242273
	113.928801	139.200133	195.062725	112.496186	446.759044
	116.293106	147.642318	203.594914	120.144386	471.381618
	118.608154	161.181670	217.025212	128.270599	506.477480
	123.065854	176.951033	229.823495	138.308861	545.083390
	128.213144	190.490386	244.201814	149.143811	583.836011
	133.828369	209.764052	260.318171	164.121536	634.203759
	139.492852	224.577697	276.908538	173.203774	674.690008
	145.477502	244.169937	293.814913	188.181499	726.166348
	151.683807	266.310760	316.409413	206.027299	788.747471
	157.323664	284.787994	333.947802	221.483036	840.218832
	161.953766	306.769531	353.382232	241.718899	901.870662
	165.598740	330.503219	377.240761	257.333974	965.077953
	167.076432	350.095459	397.465209	274.383086	1021.943754
	167.495112	370.802704	419.269692	290.316836	1080.389232
	167.568997	392.147095	438.388115	305.135223	1135.670433
	167.766022	408.394318	457.980549	318.200898	1184.575765
	166.608496	423.048676	472.516871	328.079824	1223.645371
	166.485355	438.658753	489.739253	339.233449	1267.631454
	164.810637	448.215943	501.905522	348.475024	1298.596489
	165.229317	458.888138	513.913788	352.936474	1325.738400
	164.835266	470.038193	523.077991	358.831961	1351.948146
	165.401714	475.135362	532.716205	364.408773	1372.260340
	164.367330	483.896119	540.774383	370.782274	1395.452775
	163.135920	484.214692	542.354418	369.507574	1396.076683
	159.269292	492.019731	548.200547	374.925049	1415.145327
	155.624318	496.479752	553.256660	378.111799	1427.848211
	151.166615	499.506196	556.100723	383.369936	1438.976855
	146.487258	502.373353	558.312772	383.847949	1444.534073
	145.231220	505.877656	560.050810	385.919336	1451.847802
	140.921287	509.859818	566.528954	391.974161	1468.362933
	137.399456	510.337678	564.632912	394.204886	1469.175476
	133.705228	513.204835	566.212947	399.941036	1479.358817
	129.715463	512.089829	566.054943	398.825674	1476.970446
	124.986852	512.886262	566.844961	400.737724	1480.468946
	119.593281	508.904099	563.368884	398.825674	1471.098656
	112.574252	507.948380	562.894873	398.825674	1469.668927
	105.481339	503.488358	557.680758	397.550973	1458.720090
	97.969749	497.594758	553.414663	390.699461	1441.708882
	90.802953	489.471147	544.724471	384.644636	1418.840253
	83.833184	483.099687	540.932387	380.501861	1404.533934
	79.646398	469.560334	526.554068	368.710886	1364.825288
	77.823914	459.365998	518.021879	359.150636	1336.538513
	73.366219	448.534516	504.275575	348.793699	1301.603789
	67.036784	432.446579	493.847344	339.552124	1265.846047
	62.185039	419.225800	478.046994	328.717174	1225.989967
	56.274283	403.615723	464.774700	315.332824	1183.723246
	50.954604	388.483505	449.290357	304.019861	1141.793723
	44.477402	375.103440	436.018063	294.778286	1105.899788
	38.739046	356.785492	417.057643	279.003873	1052.847008
	32.114076	342.608993	403.311338	266.894224	1012.814555
	27.163821	326.839630	384.666925	253.828549	965.335104
	22.213565	310.273834	370.920621	243.312274	924.506728
	18.420832	292.911606	351.170183	231.680636	875.762425
	16.155044	277.779388	335.527837	216.702911	830.010136
	15.022150	261.054306	317.989448	203.955911	782.999665
	11.845121	244.966369	299.661042	192.005599	736.633010
	8.865117	231.427017	284.966717	181.648661	698.042394
	6.131394	214.701934	268.376349	171.610399	654.688682
	3.570068	201.640441	253.524020	158.704061	613.868522
	1.476677	186.508224	237.565667	148.028449	572.102339
	-0.025639	172.809584	223.503355	139.105549	535.418488
	-1.010764	160.225951	210.389065	126.677224	497.292239
	-1.060020	146.527312	196.958767	116.479624	459.965703
	0.097502	134.740111	182.422445	106.919374	424.081930
	0.885602	125.501494	172.942235	99.430511	397.874240
	2.511059	112.758574	162.988015	92.738336	368.484925
	2.461802	103.838530	151.611763	83.337424	338.787716
	3.348415	94.440626	141.341535	76.804586	312.586748
	3.077506	85.202010	132.967350	71.546448	289.715808
	3.151390	78.671263	124.277157	65.172949	268.121369
	1.870727	71.184798	116.376982	57.524749	245.086528
	1.255024	62.742613	106.580765	51.469924	220.793302
	0.417667	59.079023	103.420695	49.717211	212.216929
	0.466924	51.911131	94.414496	46.371124	192.696750
	0.393039	46.813963	90.306405	40.794311	177.914679
	1.452049	45.221098	86.040310	39.041599	170.303007
	1.944612	38.849638	80.668191	34.420811	153.938640
	2.855852	36.460340	78.298139	34.580149	149.338628
	2.240149	33.752470	73.874041	34.420811	142.047322
	3.102134	32.956038	72.768016	33.146111	138.870164
	2.609571	28.496015	67.553900	29.959361	126.009277
	2.708084	24.195280	62.181782	28.047311	114.424373
	1.353536	21.009550	60.759750	24.860561	106.629861
	1.255024	23.717420	59.337719	24.701224	107.756362
	0.368411	18.460966	59.021712	24.382548	101.865226
	0.811718	17.505247	54.913621	23.745199	96.164066
	0.516180	14.160231	54.439610	21.036461	89.636302
	1.427421	14.000944	54.281607	20.558449	88.840999
	1.575190	12.726652	52.859575	19.602424	85.188651
	2.117009	11.770933	51.911554	21.355136	85.037623
	1.846099	11.293074	52.227561	18.168386	81.689021
	1.870727	13.363798	52.701572	17.371699	83.437068
	1.821471	9.540922	51.753551	15.459649	76.754121
	1.550562	9.222349	50.489523	15.140974	74.852845
	1.107255	11.930219	52.701572	18.487061	83.118852
	0.836346	9.540922	50.489523	13.866274	73.896718
	1.181140	7.629484	48.119470	11.954224	67.703178
	1.279652	8.585203	49.067491	10.679524	68.332218
	1.501305	7.151625	48.119470	10.201511	65.472606
	1.525933	8.903776	48.909488	9.882836	67.696100
	2.117009	6.195905	46.855442	7.811449	60.862796
	1.673702	5.080900	45.907421	7.333436	58.321757
	2.166265	6.514479	45.749418	8.289461	60.553357
	1.550562	5.718046	47.645460	8.608136	61.971642
	1.870727	3.806608	44.959400	5.899399	54.665407
	1.205768	5.718046	45.907421	8.130124	59.755591
	1.525933	2.213743	44.485390	5.102711	51.801844
	0.885602	6.673765	48.277474	7.652111	62.603350
	1.378165	2.691602	44.485390	4.306024	51.483016
	1.008743	-1.927706	41.325320	1.119274	40.516887
	1.895355	3.328748	45.907421	7.014761	56.250931
	1.402793	-0.812701	43.063358	2.234636	44.485294
	1.747587	-0.812701	41.799330	1.119274	42.105903
	1.082627	-0.016268	42.747351	1.756624	44.487707
	1.575190	-1.449847	42.589348	2.075299	43.214800
	1.205768	-0.812701	42.905355	4.306024	46.398678
	1.353536	-1.609133	44.485390	0.800599	43.676855
	1.131883	-2.246279	42.115337	1.437949	41.307007
	1.452049	-4.476290	40.851309	-0.155427	36.219593
	1.452049	-2.883425	40.851309	0.641261	38.609145
	1.624446	-2.405565	43.695372	0.322586	41.612393
	1.599818	-0.175555	41.483323	-0.155427	41.152342
	1.870727	-2.883425	42.589348	0.959936	40.665859
	1.993868	-2.405565	41.641327	3.509336	42.745097
	1.452049	-2.883425	41.167316	-0.792777	37.491115
	1.722958	-4.157717	40.693306	0.641261	37.176850
	1.649074	-5.272723	40.219295	-1.908139	33.038434
	1.673702	-7.024874	39.587281	-0.792777	31.769631
	1.402793	-3.042711	43.221362	0.641261	40.819911
	1.796843	-3.839144	40.693306	-0.952114	35.902048
	1.501305	-4.635576	42.431344	0.481924	38.277691
	1.895355	-5.113436	40.535302	2.553311	37.975177
	1.501305	-2.883425	44.485390	0.481924	42.083888
	1.673702	-4.794863	41.167316	-0.314764	36.057689
	1.353536	-4.317003	42.431344	0.163249	38.277589
	1.722958	-3.042711	41.167316	0.800599	38.925203
	1.181140	-3.679858	41.641327	2.712649	40.674118
	1.895355	-2.883425	41.799330	0.481924	39.397829
	1.304280	-1.290560	44.169383	1.597286	44.476109
	1.821471	-1.768420	42.747351	2.234636	43.213568
	1.255024	-0.016268	43.221362	1.597286	44.802380
	1.747587	-3.839144	40.693306	-2.226814	34.627348
	0.984115	-2.564852	43.063358	-0.474102	40.024405
	1.747587	-2.405565	40.377299	-1.430127	36.541607
	1.057999	-2.405565	44.011379	1.597286	43.203100
	1.747587	-2.405565	41.483323	-1.270789	37.806969
	1.230396	-1.927706	43.063358	0.322586	41.458238
	1.969240	-3.042711	41.325320	1.437949	39.720557
	0.959486	-3.201998	42.905355	-1.430127	38.273230
	1.649074	-2.405565	42.589348	-1.270789	38.912993
	0.614693	-2.883425	43.853376	-1.270789	39.699162
	1.476677	-2.883425	41.325320	-1.748802	36.693093
	1.033371	-3.042711	40.693306	1.278611	38.929205
	1.476677	-1.449847	42.589348	-0.314764	40.824737
	1.033371	-2.883425	41.167316	-1.908139	36.375752
	1.772215	-2.405565	42.431344	-1.430127	38.595652
	1.501305	-1.609133	40.851309	-0.633439	38.608737
	1.698330	-2.246279	42.115337	-0.314764	39.554294
	1.033371	-3.201998	39.587281	-3.023502	33.361782
	1.796843	-0.653414	42.431344	-0.633439	41.144491
	1.550562	-1.609133	41.799330	1.597286	41.787483
	1.575190	-1.927706	42.115337	-0.952114	39.235517
	1.328908	1.576597	41.483323	-1.270789	41.789131
	1.599818	-2.246279	41.957334	-1.270789	38.440266
	1.772215	-2.564852	39.903288	-1.430127	35.908310
	1.378165	-2.883425	42.589348	-0.792777	38.913146
	1.772215	-2.405565	41.167316	-0.952114	37.809637
	1.304280	-2.405565	41.641327	-1.111452	38.124310
	1.501305	-4.954149	39.271274	-0.155427	34.161698
	1.575190	-2.246279	42.273341	-0.633439	39.393622
	1.698330	-2.246279	41.957334	-1.270789	38.440266
	1.279652	-1.609133	42.431344	-0.474102	40.348110
	1.772215	-1.768420	41.009313	0.481924	39.722817
	1.353536	-2.086993	42.115337	0.959936	40.988281
	1.599818	-3.042711	39.429278	-1.270789	35.115777
	1.501305	-2.883425	40.535302	-0.633439	37.018438
	1.772215	0.143018	43.063358	3.349999	46.556375
	1.008743	-3.361285	40.851309	0.163249	37.653273
	1.870727	-1.131274	40.219295	0.481924	39.569945
	1.304280	-1.290560	42.589348	1.597286	42.896074
	1.599818	-2.246279	41.167316	2.393974	41.315011
	1.107255	-3.201998	39.587281	2.393974	38.779257
	1.378165	-2.724139	41.167316	2.712649	41.155826
	0.762461	-2.405565	41.641327	3.190661	42.426422
	1.649074	-1.131274	41.009313	3.031324	42.909363
	0.860974	-3.201998	41.325320	4.146686	42.270008
	1.279652	-2.564852	41.009313	3.668674	42.113134
	1.230396	-3.679858	40.693306	2.871986	39.885434
	1.452049	-4.954149	39.745285	3.987349	38.778484
	1.304280	-2.564852	41.483323	7.811449	46.729920
	1.353536	-3.679858	40.377299	4.943374	41.640815
	1.328908	-2.724139	41.957334	6.536749	45.769944
	1.353536	-3.839144	39.903288	5.421386	41.485530
	1.747587	-2.724139	41.799330	7.014761	46.089953
	1.673702	-4.157717	38.165250	2.871986	36.879519
	1.501305	-4.954149	40.377299	4.306024	39.729173
	1.525933	-2.724139	41.325320	6.696086	45.297267
	1.969240	-1.449847	40.693306	7.970786	47.214245
	1.328908	-3.042711	41.167316	7.652111	45.776716
	1.575190	-4.157717	40.535302	5.421386	41.798971
	1.427421	-3.679858	40.851309	5.899399	43.070850
	1.698330	-3.201998	42.431344	7.970786	47.200132
	1.476677	-2.405565	41.799330	7.492774	46.886538
	1.698330	-7.024874	38.481257	3.509336	34.965719
	1.304280	-4.794863	41.483323	6.855424	43.543884
	1.673702	-3.679858	40.219295	7.970786	44.510224
	1.476677	-8.777026	37.849243	3.031324	32.103541
	1.673702	-8.139880	38.481257	1.915961	32.257338
	1.304280	-4.794863	40.219295	3.668674	39.093106
	1.575190	-6.706301	38.797264	3.668674	35.759636
	1.008743	-6.069155	40.061292	7.811449	41.803585
	1.698330	-3.839144	41.799330	5.580724	43.540910
	0.688577	-5.432009	40.377299	4.146686	39.091976
	1.698330	-4.954149	39.587281	3.509336	38.142468
	1.107255	-4.794863	40.693306	4.624699	40.523141
	1.722958	-5.272723	41.167316	3.987349	39.881942
	0.811718	-3.361285	41.009313	3.668674	41.316702
	1.599818	-4.635576	42.115337	4.306024	41.785784
	0.860974	-4.157717	40.851309	7.174099	43.867691
	1.402793	-3.042711	42.115337	3.987349	43.059974
	1.279652	-4.794863	41.641327	4.624699	41.471162
	1.452049	-3.679858	41.957334	5.102711	43.380187
	1.402793	-4.794863	40.219295	3.668674	39.093106
	1.525933	-4.954149	41.483323	2.553311	39.082485
	1.205768	-4.635576	41.641327	2.553311	39.559061
	1.402793	-4.476290	41.799330	4.465361	41.788401
	1.624446	-5.591295	40.535302	4.784036	39.728043
	1.378165	-4.317003	42.431344	2.712649	40.826989
	1.427421	-3.520571	42.905355	4.465361	43.850145
	1.427421	-1.609133	43.537369	5.102711	47.030947
	1.599818	-5.432009	40.693306	1.915961	37.177258
	1.427421	-7.343447	39.903288	-0.792777	31.767065
	1.846099	0.461591	44.011379	3.349999	47.822969
	1.722958	-3.042711	45.907421	4.146686	47.011396
	1.919983	-5.113436	42.115337	4.465361	41.467262
	1.575190	1.417310	46.065425	4.784036	52.266771
	1.796843	-4.476290	42.431344	1.278611	39.233665
	1.279652	-4.157717	45.117404	2.234636	43.194323
	1.969240	-1.449847	43.063358	2.553311	44.166823
	1.082627	-5.591295	42.905355	3.828011	41.142070
	1.673702	-2.724139	43.221362	2.393974	42.891197
	1.131883	-5.750582	45.117404	2.553311	41.920133
	1.624446	-4.157717	43.537369	3.509336	42.888988
	1.082627	-2.564852	44.959400	3.349999	45.744547
	1.796843	-5.272723	42.431344	0.959936	38.118558
	0.787089	-3.998431	43.695372	2.234636	41.931578
	1.575190	-1.768420	44.169383	3.668674	46.069637
	0.959486	-4.317003	43.695372	3.987349	43.365717
	1.624446	-0.971987	47.013446	4.306024	50.347482
	1.057999	-1.609133	44.327386	3.987349	46.705602
	1.821471	-3.042711	42.905355	3.668674	43.531317
	1.082627	-0.334841	45.117404	3.668674	48.451236
	1.525933	-2.564852	43.853376	2.393974	43.682497
	1.304280	-2.883425	45.749418	2.393974	45.259966
	1.402793	-0.334841	44.011379	3.509336	47.185874
	1.525933	-3.839144	43.537369	4.306024	44.004248
	1.427421	-1.290560	43.853376	3.509336	46.072152
	1.649074	-3.679858	43.063358	1.915961	41.299462
	1.673702	-2.246279	44.011379	4.624699	46.389799
	1.870727	-3.042711	43.379365	2.712649	43.049302
	1.402793	-3.042711	43.221362	1.915961	42.094611
	1.969240	-4.794863	40.693306	0.163249	36.061691
	1.304280	-1.927706	43.221362	3.828011	45.121667
	1.747587	-2.246279	44.485390	6.058736	48.297847
	1.402793	-1.768420	43.537369	4.146686	45.915635
	1.870727	-2.086993	41.957334	3.190661	43.061002
	1.156511	-3.679858	41.957334	2.075299	40.352775
	1.846099	-3.042711	40.377299	2.553311	39.887898
	1.033371	-1.449847	43.537369	6.377411	48.464933
	1.698330	-2.883425	40.535302	2.712649	40.364526
	1.181140	-1.609133	42.589348	3.349999	44.330213
	1.722958	-3.042711	40.693306	3.509336	41.159930
	1.008743	-2.564852	42.589348	3.987349	44.011844
	1.427421	0.939451	42.589348	3.349999	46.878797
	0.934858	-2.564852	42.905355	3.031324	43.371826
	1.747587	-2.724139	41.167316	3.987349	42.430526
	0.984115	-0.494128	42.747351	5.899399	48.152622
	1.452049	-3.839144	41.957334	3.668674	41.786863
	0.811718	-2.724139	43.063358	3.987349	44.326568
	1.501305	-3.520571	41.641327	5.580724	43.701479
	0.984115	-4.954149	42.115337	3.190661	40.351849
	1.328908	-2.405565	41.957334	3.031324	42.583092
	0.910230	-2.405565	44.011379	4.624699	46.230512
	1.402793	-4.476290	41.009313	3.828011	40.361034
	1.033371	-3.201998	42.589348	6.058736	45.446086
	1.279652	-2.405565	43.221362	4.943374	45.759170
	1.205768	-2.246279	43.063358	4.306024	45.123103
	1.476677	-2.564852	42.115337	5.580724	45.131209
	2.018496	-2.564852	43.537369	4.784036	45.756553
	1.353536	-1.927706	41.957334	2.871986	42.901614
	1.624446	-4.954149	42.431344	2.393974	39.871168
	1.599818	-5.591295	40.693306	3.828011	38.930021
	1.870727	-0.334841	44.801397	8.448799	52.915354
	1.747587	-3.361285	43.537369	5.102711	45.278795
	2.067752	-3.042711	43.853376	4.784036	45.594700
	1.993868	-1.609133	43.379365	5.262049	47.032281
	2.117009	-4.954149	42.589348	4.465361	42.100559
	1.747587	-3.520571	43.221362	6.696086	46.396877
	2.387918	-6.228441	40.693306	1.915961	36.380825
	2.560315	-5.272723	42.115337	4.146686	40.989301
	3.003621	-4.317003	42.273341	4.943374	42.899711
	2.387918	-4.954149	42.747351	4.306024	42.099225
	3.816350	-3.361285	43.379365	6.536749	46.554829
	2.855852	-2.724139	44.169383	4.624699	46.069943
	3.742465	-2.724139	44.169383	5.899399	47.344643
	4.062631	-2.724139	44.801397	7.652111	49.729369
	5.047756	-1.131274	43.695372	5.740061	48.304160
	5.121641	-0.016268	46.855442	7.652111	54.491285
	6.697841	2.373029	46.381432	8.130124	56.884585
	5.934369	3.010175	49.541502	10.042174	62.593851
	7.239660	2.532316	47.803463	7.652111	57.987890
	7.485941	8.107344	51.753551	10.998199	70.859093
	8.889745	5.877333	52.385565	11.954224	70.217121
	9.259167	8.107344	53.649593	15.140974	76.897910
	10.884624	9.222349	56.177649	15.140974	80.540971
	11.771236	11.611647	58.705705	17.053024	87.370374
	13.322809	14.319517	61.075757	19.921099	95.316373
	14.628100	17.345961	63.761817	21.036461	102.144238
	16.795376	19.257399	65.815862	21.992486	107.065747
	17.041657	22.283842	68.975932	24.541886	115.801660
	18.913395	25.788145	72.294006	28.525324	126.607474
	19.578355	28.973875	75.928086	32.349424	137.251385
	20.169430	29.929594	76.402096	31.074724	137.406414
	21.351580	32.637465	81.142202	33.783461	147.563127
	22.878525	36.460340	85.408296	36.492199	158.360835
	25.070429	39.486784	89.200380	39.997624	168.684787
	26.548117	42.831800	94.098489	43.981061	180.911350
	28.838534	46.654677	96.468541	44.299736	187.422954
	30.488619	49.043974	101.998664	47.964499	199.007136
	33.049945	49.362547	101.682657	48.920524	199.965727
	34.576890	58.760450	112.742902	54.656674	226.160026
	36.571769	59.556883	112.742902	54.656674	226.956458
	38.123342	62.583327	117.325003	57.206074	237.114403
	40.216734	66.565489	119.695056	60.392824	246.653368
	40.487644	69.114073	128.227245	66.128974	263.470291
	42.211613	72.299803	127.121220	64.535599	263.956622
	43.738558	77.715544	133.915371	69.156386	280.787301
	46.250629	79.945555	135.969416	72.821149	288.736120
	47.235754	82.494139	140.709521	71.705786	294.909446
	49.181378	87.591307	143.711588	75.051873	306.354768
	50.141875	91.573470	147.661675	77.282599	316.517743
	51.447167	97.467070	151.137752	81.903386	330.508208
	51.594936	100.334227	156.825878	85.727486	342.887591
	53.146509	106.705687	158.405913	85.886824	350.998424
	53.762212	110.687849	163.462025	89.870261	364.020136
	55.289157	114.192153	165.358067	93.375686	372.925905
	55.707836	121.837905	173.100239	95.128399	390.066542
	56.495937	124.386488	174.680274	97.199786	396.266548
	56.791474	129.165084	179.262375	101.342561	409.770020
	58.219907	136.651549	183.054459	106.282024	425.988032
	58.416932	139.837279	189.848610	112.814861	442.500750
	59.254289	145.890166	192.376666	114.089561	452.356393
	59.328173	151.624480	198.538802	119.188361	469.351643
	60.116274	154.810210	201.382865	122.375111	478.568186
	59.697596	160.703811	205.174949	126.517886	492.396646
	60.411812	167.075271	210.705072	133.210061	510.990403
	59.254289	167.712417	214.023145	132.413374	514.148935
	59.081892	176.632461	220.659292	138.946211	536.237963
	58.170651	176.951033	221.923320	141.654949	540.529302
	57.604203	182.685348	228.875474	145.638386	557.199208
	57.357922	186.030364	229.349485	145.160374	560.540222
	56.003374	188.578948	235.353618	148.825136	572.757702
	55.190645	188.897521	234.721604	150.099836	573.718961
	53.860725	194.313262	241.199747	155.517311	591.030320
	52.727830	191.127532	237.565667	151.215199	579.908397
	51.471795	193.516830	241.989765	153.127249	588.633843
	50.757579	189.375381	237.407663	148.506461	575.289505
	49.058237	191.764678	240.883740	151.693211	584.341629
	48.073111	190.649673	238.671691	150.259174	579.580537
	46.102860	190.968245	241.515754	150.577849	583.061848
	45.290131	186.826797	236.933653	147.550436	571.310885
	42.753432	186.826797	236.301639	147.709774	570.838209
	43.147483	182.048202	231.877541	143.407661	557.333403
	41.029463	180.614623	231.719537	141.814286	554.148446
	39.798056	176.154601	226.347418	138.468199	540.970217
	37.409126	172.650298	224.767383	136.237474	533.655155
	36.645654	166.915984	216.393198	129.067286	512.376467
	34.503006	165.641692	217.025212	130.023311	512.690215
	33.394739	161.978103	212.127103	127.473911	501.579117
	31.399860	157.677367	208.335019	126.039874	492.052260
	30.045313	154.810210	203.120904	121.578423	479.509537
	28.493740	150.509475	200.592848	118.551011	469.653333
	27.262333	146.845885	195.378732	115.045586	457.270203
	25.612248	142.863723	190.954634	112.974199	446.792555
	24.553238	140.633712	187.636561	112.974199	441.244471
	24.577866	135.695830	182.896456	106.600699	425.192984
	23.198691	134.102965	181.474424	106.919374	422.496763
	22.164309	127.890792	173.416246	101.023886	402.330923
	20.612736	123.112197	169.624162	97.518461	390.254819
	19.701495	120.882186	166.622095	95.925086	383.429367
	18.223807	118.174315	162.356001	91.782311	372.312627
	17.583476	111.165709	155.719854	89.551586	356.437149
	16.425954	108.617125	153.507805	88.914236	351.039166
	15.514713	107.342833	149.241710	83.496761	340.081304
	13.839999	100.493514	145.923637	81.106699	327.523849
	13.372065	96.511351	140.077507	77.601274	314.190132
	11.845121	93.644194	137.707455	76.326574	307.678222
	12.140658	88.069167	133.125353	72.502473	293.696993
	11.057020	86.317015	130.755301	69.793736	286.866052
	10.786111	80.264128	125.067175	67.084999	272.416301
	9.259167	77.078398	121.907105	66.128974	265.114476
	9.456192	75.804106	119.063042	62.145536	257.012684
	8.224785	71.662657	115.586965	59.118124	246.367745
	8.323298	68.476927	111.004863	56.090711	235.572501
	7.018007	65.131911	108.792814	54.178661	228.103386
	6.993379	63.539046	107.528786	52.903961	223.971793
	5.885113	60.353316	103.262692	48.920524	212.536530
	5.811228	54.300428	97.416562	46.211786	197.928777
	5.294037	52.070417	95.678523	46.689799	194.438739
	5.146269	51.592558	94.572499	43.184374	189.349430
	5.047756	48.406828	93.308471	43.025036	184.740335
	5.097012	42.672514	87.620345	37.607561	167.900420
	4.333540	42.513227	85.408296	36.810874	164.732397
	4.505937	38.531065	84.618279	36.492199	159.641542
	4.333540	37.256773	82.564233	33.305449	153.126455
	4.333540	33.593183	80.984198	30.278036	144.855417
	4.308912	32.318891	78.614146	31.552736	142.485773
	4.210400	30.407453	76.086090	28.206648	134.700192
	3.890234	28.018156	73.242027	25.816586	127.076769
	4.038003	26.903150	75.928086	25.975924	128.807160
	3.816350	24.195280	69.607946	23.585861	117.389087
	3.570068	22.602415	69.133936	25.179236	116.915587
	3.693209	20.372404	65.973866	21.355136	107.701406
	3.422299	20.531690	66.921886	20.239773	107.693350
	3.840978	18.142393	63.919820	19.443086	101.505299
	3.471556	17.345961	63.919820	18.646399	99.912179
	3.767093	15.275236	60.285740	17.849711	93.410687
	3.176018	15.115949	61.075757	16.256336	92.448043
	3.840978	14.797377	57.283673	13.388261	85.469311
	3.422299	13.682371	60.601747	17.212361	91.496479
	3.594696	13.204512	57.915687	14.662961	85.783160
	3.446928	15.912382	60.443743	14.662961	91.019086
	3.643953	11.133787	57.283673	13.706936	82.124396
	3.151390	10.337354	56.651659	12.591574	79.580587
	3.742465	8.107344	55.229628	11.794886	75.131857
	3.200646	8.903776	57.915687	11.157536	77.976999
	3.693209	5.558759	51.595547	8.608136	65.762443
	3.176018	9.222349	56.177649	14.344286	79.744284
	3.890234	7.788771	53.017579	10.042174	70.848523
	3.200646	6.673765	54.439610	8.926811	70.040186
	4.087259	6.355192	52.543568	9.086149	67.984909
	3.742465	11.930219	58.073691	13.388261	83.392171
	4.481309	6.992338	52.701572	11.157536	70.851446
	3.939490	8.107344	52.701572	10.201511	71.010426
	4.432053	9.063062	54.597614	11.157536	74.818212
	3.545440	7.629484	53.965600	10.679524	72.274607
	4.530565	8.266630	54.439610	11.476211	74.182451
	3.865606	10.018782	53.175582	10.838861	74.033225
	4.555194	8.266630	54.597614	9.723499	72.587742
	4.136515	7.948057	53.017579	10.998199	71.963834
	4.407425	9.222349	54.123603	12.591574	75.937526
	4.136515	7.788771	53.807596	11.476211	73.072578
	4.604450	8.903776	55.229628	11.476211	75.609615
	4.407425	9.700209	53.017579	11.157536	73.875323
	4.924616	8.903776	56.019645	12.750911	77.674332
	4.949244	8.585203	53.807596	13.228924	75.621723
	5.023128	8.744490	55.229628	11.476211	75.450328
	5.072384	10.178068	55.861642	14.503624	80.543333
	5.220153	10.018782	55.861642	14.662961	80.543384
	5.367922	8.903776	54.597614	12.910248	76.411638
	5.417178	11.293074	57.757684	14.184949	83.235706
	5.737344	10.496641	54.755617	12.591574	77.843832
	5.343294	8.585203	54.913621	12.750911	76.249735
	5.663459	11.930219	54.755617	13.866274	80.552110
	5.860485	9.540922	56.493656	12.272899	78.307476
	6.131394	11.133787	56.335652	15.778324	83.247763
	6.451560	14.478804	57.915687	17.371699	89.766189
	6.426932	10.815214	56.335652	15.300311	82.451177
	6.500816	12.408079	58.863708	16.256336	87.528123
	7.141147	10.178068	56.651659	14.981636	81.811363
	6.697841	12.567366	60.127736	18.009048	90.704150
	7.362801	11.930219	57.757684	16.734348	86.422252
	7.116519	11.133787	60.759750	16.734348	88.627886
	7.682966	11.930219	58.705705	17.212361	87.848285
	7.239660	14.319517	61.233761	18.965074	94.518351
	7.978504	11.770933	60.285740	18.009048	90.065721
	7.707594	14.638090	62.813796	18.168386	95.620272
	8.471067	15.593809	62.023778	18.009048	95.626636
	8.027760	19.098112	66.605880	23.585861	109.289852
	8.668092	15.912382	63.761817	22.311161	101.985360
	8.052388	17.823820	65.183848	21.355136	104.362804
	9.185282	16.708815	63.919820	20.399111	101.027746
	8.865117	19.098112	65.657859	21.673811	106.429782
	9.727101	18.620252	66.131869	21.992486	106.744608
	9.160654	19.098112	65.657859	22.789174	107.545144
	10.416689	21.009550	67.711904	22.311161	111.032615
	10.071895	20.372404	68.027911	23.426524	111.826839
	10.638342	21.646696	69.133936	25.338573	116.119205
	10.195036	22.602415	67.395897	22.151823	112.150136
	10.909252	22.283842	70.397964	23.745199	116.427004
	11.032392	24.195280	71.977998	25.179236	121.352514
	11.771236	27.221723	72.452009	25.975924	125.649656
	11.549583	25.628858	73.084023	26.931949	125.644830
	12.731733	26.106718	73.558034	25.497911	125.162663
	12.460824	27.062437	75.138069	28.206648	130.407154
	13.273552	26.425291	73.716037	28.843999	128.985327
	13.298181	28.177443	74.980065	27.887974	131.045481
	13.987768	27.699583	75.454076	27.250623	130.404282
	14.381818	32.000318	77.824128	30.278036	140.102483
	14.628100	32.796751	80.036177	31.393399	144.226326
	14.948266	33.274610	79.562167	32.190086	145.026863
	15.293059	36.778913	81.774216	31.871411	150.424540
	15.563969	31.841032	79.404163	29.800024	141.045219
	15.465456	36.460340	83.986265	34.580149	155.026754
	16.327441	40.442503	84.144268	34.102136	158.688907
	16.179672	42.672514	89.516387	37.607561	169.796462
	17.066285	38.531065	86.514321	33.464786	158.510172
	17.140169	43.787519	87.620345	36.173524	167.581388
	17.755873	39.646071	89.042377	37.766899	166.455345
	17.657360	42.991087	89.674391	37.926236	170.591714
	18.371576	43.946806	91.096422	37.766899	172.810126
	18.346948	42.194654	89.200380	36.332861	167.727896
	18.864139	46.336103	95.678523	40.634974	182.649600
	18.445461	43.628233	92.360450	40.634974	176.623657
	18.987280	45.698957	94.098489	39.838286	179.635732
	18.667114	49.521833	95.362517	42.387686	187.272036
	19.701495	46.813963	97.258559	42.865699	186.938220
	18.913395	50.796125	97.100555	43.503049	191.399729
	19.775380	53.185423	100.260625	44.459074	197.905122
	19.455214	53.185423	99.470607	45.893111	198.549141
	20.588108	54.300428	102.156667	45.255761	201.712857
	19.972405	55.734007	102.314671	48.123836	206.172514
	20.932902	54.937574	102.156667	45.415099	202.509340
	20.464968	58.760450	102.788681	48.761186	210.310318
	20.735877	57.804731	107.212779	52.107274	217.124784
	20.563480	59.716169	105.316737	50.832574	215.865480
	20.686621	61.468321	107.370783	51.151249	219.990352
	20.908274	60.512602	107.212779	52.585286	220.310667
	21.154555	61.468321	109.740835	51.629261	222.838417
	21.056043	61.786894	108.318804	52.744624	222.850321
	20.957530	62.583327	109.898839	52.585286	225.067451
	21.425465	63.857619	109.424828	53.859986	227.142433
	20.883646	64.494765	113.690923	56.409386	234.595073
	21.400837	62.583327	109.424828	53.381974	225.390128
	20.809761	65.450484	112.742902	53.381974	231.575359
	21.056043	64.654051	110.688856	53.222636	228.565543
	20.785133	66.087630	111.320870	56.090711	233.499211
	21.056043	65.450484	111.162867	57.046736	233.660086
	20.440339	67.839781	114.164933	57.046736	239.051450
	20.735877	68.158354	113.374916	56.090711	237.623981
	20.070917	68.795500	113.216912	57.524749	239.537161
	20.169430	63.698332	108.792814	52.107274	224.598420
	19.529098	65.131911	110.056842	53.700649	228.889401
	20.292571	64.972624	111.004863	52.903961	228.881448
	19.381330	66.406202	110.688856	54.975349	232.070407
	19.578355	70.547652	113.532919	56.728061	240.808632
	18.617857	66.565489	111.162867	55.453361	233.181717
	19.085792	66.884062	112.268891	53.859986	233.012939
	18.765626	68.795500	111.636877	55.294024	235.726401
	18.765626	68.158354	114.954951	57.843424	240.956728
	18.470089	66.246916	111.162867	55.612699	233.022481
	18.593229	64.654051	112.110888	53.700649	230.465587
	18.568601	62.424040	108.160800	52.425949	223.010788
	18.420832	65.450484	111.004863	55.931374	232.386720
	18.076039	64.972624	109.898839	53.700649	228.572111
	17.829757	64.176192	110.056842	53.063299	227.296332
	17.706617	64.176192	107.370783	52.585286	224.132260
	17.238682	65.291197	110.530853	54.019324	229.841373
	17.509591	64.016905	106.738769	51.947936	222.703609
	16.943144	61.149748	106.264758	49.876549	217.291055
	17.361823	61.786894	105.474741	51.310586	218.572221
	16.352069	64.016905	107.370783	52.744624	224.132311
	16.647607	60.671889	104.526719	50.832574	216.031182
	16.130416	59.716169	104.526719	48.123836	212.366725
	16.302813	61.627607	104.526719	48.442511	214.596838
	15.293059	58.919737	103.894706	49.398536	212.212978
	16.056532	59.238310	103.262692	51.151249	213.652250
	14.874381	60.353316	103.420695	49.079861	212.853872
	15.465456	57.008299	101.682657	47.645824	206.336779
	14.529587	58.123305	102.314671	48.283174	208.721148
	15.046778	60.034742	103.578699	50.513899	214.127340
	14.012396	54.300428	99.470607	46.849136	200.620172
	14.578844	53.981855	97.732569	44.140399	195.854823
	13.692231	55.415434	100.418629	47.486486	203.320549
	14.184793	53.981855	99.154601	47.327149	200.463605
	13.741487	55.096861	99.312604	46.689799	201.099264
	13.692231	51.911131	96.468541	42.706361	191.086033
	13.372065	53.503996	97.890573	45.096424	196.490992
	13.544462	52.388990	96.784548	44.937086	194.110625
	13.125784	50.955412	95.678523	44.618411	191.252347
	13.421321	53.822569	95.836527	43.343711	193.002807
	13.125784	49.999693	94.414496	43.503049	187.917237
	12.756362	49.840406	93.940485	44.777749	188.558640
	12.756362	50.955412	93.308471	41.909674	186.173557
	12.313055	46.176817	91.412429	39.997624	177.586870
	12.657849	49.362547	93.308471	42.706361	185.377379
	12.411568	45.221098	90.780415	40.316299	176.317812
	12.337683	45.698957	92.044443	41.590999	179.334399
	12.042146	44.902525	89.200380	37.926236	172.029141
	12.362311	46.973249	90.148401	39.997624	177.119274
	12.017518	43.946806	89.832394	40.953649	174.732849
	12.411568	44.424665	89.042377	38.563586	172.030628
	11.524955	43.468946	89.042377	36.970211	169.481534
	12.140658	43.946806	88.094356	37.607561	169.648722
	11.155533	45.539671	90.306405	39.997624	175.843699
	11.672724	41.398222	86.830328	38.722924	166.951473
	11.106277	41.238935	86.988331	36.332861	164.560127
	11.574211	42.194654	87.304338	36.332861	165.831854
	10.786111	43.150374	88.094356	38.563586	169.808315
	11.721980	41.876081	86.830328	36.014186	164.720595
	11.032392	40.442503	86.198314	36.492199	163.133015
	11.771236	39.168211	86.356317	33.783461	159.307989
	11.426442	43.628233	86.988331	37.448224	168.064787
	11.500327	39.486784	86.356317	36.810874	162.653975
	11.500327	39.486784	84.934286	35.217499	159.638568
	11.524955	40.442503	90.148401	33.146111	163.737015
	11.451071	37.256773	83.828261	33.146111	154.231145
	11.524955	36.938200	83.512254	32.827436	153.277890
	11.574211	36.778913	81.932219	33.624124	152.335256
	11.426442	37.575346	86.514321	32.827436	156.917102
	11.771236	40.283216	85.566300	36.014186	161.863702
	11.377186	37.097487	84.618279	36.173524	157.889289
	11.771236	36.938200	82.564233	32.508761	152.011194
	11.254046	37.893919	84.934286	32.827436	155.655641
	11.771236	38.531065	84.302272	34.739486	157.572823
	10.884624	40.920362	85.250293	33.783461	159.954116
	11.524955	35.663908	81.932219	32.986774	150.582900
	11.155533	37.575346	83.038244	35.854849	156.468438
	11.672724	36.619627	83.196247	31.552736	151.368610
	11.106277	35.504621	81.458208	32.349424	149.312253
	11.746608	36.778913	87.936352	35.058161	159.773427
	11.180161	37.893919	83.354251	33.942799	155.190968
	11.697352	36.619627	83.828261	32.986774	153.434662
	11.081649	39.646071	83.038244	36.173524	158.857838
	11.894377	35.982481	82.406230	32.190086	150.578797
	11.672724	38.690351	83.986265	35.058161	157.734777
	11.820493	39.327497	84.460275	34.420811	158.208583
	11.648096	37.893919	86.040310	36.173524	160.107753
	11.992889	39.168211	83.196247	33.624124	155.988581
	11.869749	35.982481	81.616212	32.349424	149.948116
	12.042146	38.531065	83.828261	35.695511	158.054837
	12.042146	36.938200	82.406230	33.464786	152.809215
	12.066774	38.849638	84.302272	34.898823	158.050733
	12.337683	36.141768	81.458208	33.146111	150.746087
	12.288427	38.371778	83.196247	34.898823	156.466849
	12.510080	39.646071	83.828261	32.986774	156.461105
	12.386940	38.690351	83.354251	35.217499	157.262101
	12.805618	39.008924	84.144268	34.420811	157.574004
	12.362311	38.690351	85.092289	34.102136	157.884777
	13.150412	38.212492	83.512254	34.580149	156.304895
	12.756362	42.353941	89.200380	38.244911	169.799232
	13.347437	38.212492	83.512254	36.173524	157.898270
	12.879502	39.008924	84.302272	35.376836	158.688032
	13.248924	39.168211	83.670258	35.536174	158.374642
	12.707105	43.150374	86.356317	36.651536	166.158227
	13.396693	39.646071	85.092289	35.536174	160.274533
	13.175040	41.716795	86.514321	39.360274	167.591389
	13.347437	40.761076	85.408296	35.536174	161.705546
	12.460824	41.716795	87.462342	37.926236	167.105373
	13.519834	38.849638	83.354251	34.898823	157.102712
	12.928759	41.557508	86.356317	37.766899	165.680724
	13.667603	41.716795	87.620345	37.129549	166.466688
	13.248924	42.353941	89.832394	37.129549	169.315884
	13.544462	41.557508	86.514321	35.695511	163.767340
	13.002643	42.672514	89.042377	37.766899	169.481789
	13.150412	43.946806	89.042377	39.838286	172.827469
	12.879502	41.716795	87.462342	36.651536	165.830672
	13.790743	42.672514	88.094356	37.926236	168.693106
	13.741487	43.468946	88.252359	37.448224	169.169529
	13.987768	44.106093	88.568366	37.607561	170.282020
	13.913884	42.353941	86.830328	37.448224	166.632492
	13.987768	44.424665	88.884373	38.085574	171.394612
	14.307934	43.787519	86.672324	37.288886	167.748730
	14.135537	44.424665	89.042377	37.288886	170.755928
	14.455703	45.858244	87.620345	38.085574	171.564163
	14.234050	46.495390	91.886440	42.387686	180.769516
	14.529587	44.106093	87.304338	37.607561	169.017992
	14.209421	48.566114	91.096422	39.678949	179.341485
	14.652728	43.150374	87.304338	39.041599	169.496310
	14.357190	45.061811	89.832394	38.722924	173.617129
	14.726612	43.628233	89.200380	37.926236	170.754849
	13.913884	43.946806	89.832394	37.766899	171.546098
	14.800497	44.424665	89.042377	38.882261	172.349303
	14.184793	45.221098	91.096422	42.228349	178.545869
	14.849753	45.539671	88.568366	38.882261	172.990298
	13.889256	46.654677	91.412429	40.316299	178.383404
	14.775869	46.336103	89.674391	40.634974	176.645467
	14.012396	48.088255	91.886440	40.475636	180.450331
	14.578844	46.176817	89.674391	38.244911	174.096118
	14.160165	46.654677	91.412429	39.041599	177.108704
	14.726612	49.043974	91.412429	40.953649	181.410052
	14.332562	46.813963	91.728436	42.547024	181.089423
	14.480331	48.088255	90.780415	41.112986	179.981656
	14.283306	51.433271	94.572499	42.706361	188.712132
	15.268431	48.247541	92.518454	40.794311	181.560306
	14.480331	47.928968	92.202447	41.112986	181.244401
	14.775869	49.043974	91.570433	43.025036	183.639443
	14.677356	46.336103	91.096422	39.678949	177.111474
	14.480331	49.521833	92.992464	42.387686	184.901983
	14.825125	50.158980	92.044443	41.431661	183.635084
	14.603472	47.928968	92.676457	41.431661	182.037086
	14.825125	45.698957	89.674391	38.085574	173.458922
	14.578844	49.521833	93.466475	41.431661	184.419969
	15.071406	47.769682	91.728436	41.750336	181.248454
	14.578844	49.521833	93.466475	44.299736	187.288044
	14.923637	47.132536	91.570433	40.156961	178.859929
	14.431075	47.928968	92.834461	40.475636	181.239065
	15.071406	49.521833	92.360450	41.590999	183.473282
	14.504959	49.043974	93.150468	42.706361	184.900803
	14.874381	48.725401	92.834461	42.069011	183.628872
	13.889256	48.725401	92.992464	41.272324	182.990189
	14.775869	48.725401	91.728436	41.590999	182.044836
	13.938512	51.911131	93.624478	44.299736	189.835345
	14.554215	48.406828	92.518454	40.953649	181.878930
	13.815371	47.928968	92.360450	41.272324	181.561742
	14.406447	50.636839	91.886440	41.272324	183.795602
	13.569090	48.566114	93.466475	42.547024	184.579612
	14.307934	51.433271	94.256492	42.547024	188.236787
	13.815371	46.495390	91.728436	39.678949	177.902775
	14.135537	46.973249	91.254426	41.112986	179.340661
	13.815371	49.043974	92.834461	43.981061	185.859496
	14.209421	48.725401	94.572499	42.865699	186.163599
	13.593718	47.769682	93.624478	41.590999	182.985159
	14.283306	49.840406	94.572499	41.909674	186.322579
	14.332562	46.813963	92.676457	41.590999	181.081419
	13.889256	47.610396	93.940485	43.503049	185.053929
	13.938512	47.769682	91.886440	40.475636	180.131758
	13.987768	48.088255	96.468541	41.112986	185.669782
	14.406447	47.769682	92.044443	40.634974	180.449098
	14.234050	47.132536	92.676457	39.997624	179.806616
	13.815371	47.769682	91.886440	40.156961	179.813083
	13.815371	46.973249	93.466475	38.404249	178.843973
	14.110909	46.336103	90.938419	39.519611	176.794133
	13.716859	48.406828	93.624478	43.662386	185.693692
	14.184793	47.291822	89.990398	38.722924	176.005144
	13.667603	47.610396	93.308471	39.997624	180.916490
	14.037025	46.336103	90.780415	38.882261	175.998779
	13.642974	49.043974	92.992464	40.156961	182.193399
	13.889256	45.539671	89.990398	40.475636	176.005705
	13.396693	46.973249	92.044443	39.838286	178.855979
	13.839999	46.336103	90.464408	39.360274	176.160785
	13.199668	45.061811	91.096422	40.794311	176.952544
	13.618346	46.017530	90.306405	39.041599	175.365534
	12.904130	46.176817	93.150468	38.882261	178.209545
	13.642974	46.176817	90.780415	39.360274	176.317506
	12.756362	48.247541	93.308471	41.272324	182.828336
	14.578844	45.858244	89.516387	38.563586	173.938217
	13.002643	49.362547	94.098489	39.678949	183.139984
	13.692231	47.132536	91.254426	40.316299	178.703260
	13.076527	47.132536	91.886440	42.865699	181.884674
	13.593718	49.362547	90.780415	39.997624	180.140586
	12.633221	46.813963	91.570433	39.041599	177.425994
	13.396693	48.088255	91.886440	40.475636	180.450331
	13.002643	49.840406	92.518454	40.316299	182.675159
	13.396693	45.698957	90.148401	42.069011	177.916370
	12.657849	45.221098	88.252359	38.722924	172.196381
	13.593718	49.999693	90.780415	39.519611	180.299719
	12.805618	45.858244	89.042377	39.360274	174.260894
	13.298181	45.858244	89.832394	39.519611	175.210249
	12.904130	44.743238	86.830328	38.244911	169.818477
	13.051899	43.946806	89.200380	37.766899	170.914085
	12.879502	45.061811	87.778349	38.882261	171.722421
	13.199668	43.787519	89.200380	41.431661	174.419560
	12.805618	43.946806	88.094356	38.882261	170.923422
	13.076527	45.380384	89.358384	37.766899	172.505667
	12.682477	43.309660	86.830328	37.766899	167.906886
	13.051899	43.309660	88.568366	38.244911	170.122937
	12.928759	44.902525	87.936352	40.794311	173.633188
	13.248924	44.902525	88.884373	38.244911	172.031809
	12.756362	45.858244	86.988331	38.404249	171.250824
	12.978015	42.672514	86.988331	37.607561	167.268406
	13.101155	43.628233	86.672324	37.448224	167.748781
	12.731733	46.176817	88.568366	36.970211	171.715394
	13.298181	44.265379	87.462342	37.607561	169.335282
	12.854874	46.176817	89.832394	39.838286	175.847497
	13.076527	44.743238	90.622412	37.607561	172.973211
	13.396693	47.610396	88.410363	39.997624	176.018382
	13.248924	41.716795	86.988331	36.332861	165.037987
	13.150412	44.106093	87.620345	37.288886	169.015324
	13.593718	41.876081	86.356317	38.563586	166.795984
	13.396693	43.309660	87.304338	37.766899	168.380897
	13.248924	45.221098	88.410363	37.607561	171.239022
	13.322809	45.061811	87.936352	39.360274	172.358437
	13.470577	44.265379	91.096422	37.926236	173.288037
	13.372065	43.946806	86.672324	36.014186	166.633316
	13.470577	43.628233	87.778349	38.085574	169.492155
	13.347437	44.583952	88.252359	39.360274	172.196585
	13.347437	43.150374	85.724303	37.448224	166.322900
	13.544462	47.610396	90.464408	39.997624	178.072427
	13.470577	43.628233	86.830328	39.838286	170.296847
	13.248924	44.424665	88.252359	38.085574	170.762598
	13.642974	44.106093	89.200380	37.766899	171.073371
	13.372065	46.654677	89.358384	39.997624	176.010684
	13.889256	40.920362	87.778349	35.058161	163.756872
	13.298181	44.424665	88.252359	36.970211	169.647235
	13.716859	44.424665	89.516387	38.244911	172.185964
	13.322809	42.991087	88.568366	38.085574	169.645027
	13.692231	45.061811	87.620345	38.085574	170.767730
	13.445949	43.628233	87.462342	36.810874	167.901448
	13.766115	44.583952	86.988331	37.448224	169.020507
	13.248924	44.424665	88.252359	38.404249	171.081273
	13.716859	45.380384	89.358384	38.404249	173.143017
	13.051899	42.991087	87.304338	38.722924	169.018349
	13.692231	44.106093	88.884373	36.970211	169.960677
	12.879502	46.176817	89.674391	39.200936	175.052143
	13.963140	47.610396	91.886440	41.750336	181.247171
	13.150412	47.291822	92.676457	40.794311	180.762590
	13.421321	44.106093	88.884373	37.926236	170.916702
	13.002643	45.061811	91.886440	38.722924	175.671175
	13.839999	43.150374	88.726370	41.272324	173.149067
	12.879502	43.787519	89.042377	37.607561	170.437457
	13.667603	44.424665	88.884373	38.563586	171.872624
	13.125784	45.061811	89.358384	40.634974	175.055169
	13.667603	46.495390	88.884373	38.563586	173.943349
	12.854874	44.265379	89.358384	38.563586	172.187348
	13.839999	46.176817	89.674391	39.838286	175.689493
	13.051899	44.583952	86.830328	38.244911	169.659191
	13.716859	45.061811	88.726370	37.448224	171.236405
	12.978015	46.654677	90.464408	39.360274	176.479358
	13.298181	45.698957	89.042377	39.519611	174.260945
	13.298181	48.406828	89.832394	38.722924	176.962146
	13.642974	44.902525	87.304338	38.244911	170.451774
	12.953387	45.539671	89.200380	39.519611	174.259662
	13.618346	44.265379	88.252359	39.997624	172.515362
	13.199668	44.902525	89.516387	38.244911	172.663823
	13.519834	45.858244	89.674391	39.678949	175.211583
	13.322809	44.424665	88.094356	39.678949	172.197969
	13.692231	47.132536	90.464408	38.722924	176.319868
	13.273552	45.061811	89.990398	39.838286	174.890495
	13.544462	45.698957	90.306405	40.953649	176.959011
	13.495206	44.424665	89.042377	38.244911	171.711953
	13.593718	45.858244	91.570433	40.316299	177.744975
	13.692231	45.061811	88.726370	40.953649	174.741830
	13.642974	46.176817	89.516387	39.360274	175.053478
	13.815371	47.610396	88.094356	38.244911	173.949662
	13.593718	45.539671	89.200380	42.387686	177.127737
	14.184793	44.902525	87.620345	38.563586	171.086456
	13.101155	43.946806	88.884373	38.563586	171.394765
	13.987768	42.672514	87.146335	37.129549	166.948397
	13.889256	42.831800	86.830328	36.970211	166.632339
	13.938512	45.380384	87.778349	38.882261	172.040994
	13.593718	45.858244	87.936352	37.129549	170.924145
	13.987768	45.539671	88.252359	39.360274	173.152304
	13.248924	46.176817	89.832394	41.590999	177.600210
	14.012396	46.176817	86.830328	38.244911	171.252056
	13.199668	45.539671	89.832394	39.519611	174.891676
	13.913884	45.698957	87.936352	41.272324	174.907633
	13.593718	46.495390	90.306405	40.316299	177.118093
	13.889256	46.336103	90.780415	39.678949	176.795467
	13.347437	45.858244	89.674391	40.156961	175.689595
	14.110909	43.628233	87.462342	36.810874	167.901448
	13.347437	46.176817	86.830328	35.695511	168.702656
	13.938512	46.813963	92.202447	40.634974	179.651383
	13.002643	45.539671	89.200380	39.200936	173.940987
	13.618346	46.813963	94.572499	40.953649	182.340111
	13.125784	45.380384	90.938419	39.041599	175.360402
	13.495206	46.973249	91.728436	40.475636	179.177322
	13.051899	47.769682	91.886440	43.503049	183.159170
	13.790743	47.610396	91.728436	39.200936	178.539768
	13.150412	45.539671	89.200380	39.519611	174.259662
	13.692231	46.336103	90.464408	41.909674	178.710185
	13.470577	46.495390	89.200380	39.041599	174.737369
	13.495206	45.061811	87.620345	39.360274	172.042430
	13.322809	45.858244	88.726370	41.750336	176.334950
	13.495206	47.132536	90.148401	40.475636	177.756573
	13.692231	49.043974	89.042377	39.519611	177.605962
	13.618346	44.902525	88.094356	40.634974	173.631854
	13.790743	46.495390	87.462342	39.360274	173.318005
	13.372065	45.380384	90.306405	39.678949	175.365738
	13.445949	44.902525	87.462342	40.316299	172.681165
	13.544462	46.813963	90.306405	40.316299	177.436666
	13.593718	46.813963	91.412429	39.519611	177.746003
	13.593718	46.813963	88.726370	38.563586	174.103919
	13.445949	45.539671	92.360450	39.838286	177.738407
	13.519834	46.973249	90.622412	39.519611	177.115272
	13.593718	47.769682	91.096422	38.882261	177.748365
	13.421321	45.539671	89.516387	39.519611	174.575669
	13.692231	46.495390	92.202447	42.069011	180.766847
	13.445949	46.336103	89.832394	39.200936	175.369434
	13.790743	45.698957	90.306405	39.041599	175.046961
	13.716859	45.221098	89.042377	40.316299	174.579773
	13.716859	45.698957	87.620345	38.722924	172.042226
	13.544462	49.999693	90.938419	41.431661	182.369773
	14.037025	44.424665	88.094356	39.519611	172.038632
	13.618346	46.813963	89.516387	39.997624	176.327974
	13.642974	43.628233	87.462342	37.607561	168.698136
	13.224296	42.513227	86.356317	36.014186	164.883731
	14.086281	45.539671	88.252359	39.041599	172.833629
	13.347437	45.061811	87.462342	37.766899	170.291052
	13.889256	46.336103	87.462342	37.448224	171.246669
	13.224296	45.858244	88.252359	40.156961	174.267564
	14.037025	46.017530	88.568366	40.316299	174.902195
	13.544462	46.336103	87.620345	38.563586	172.520035
	13.913884	43.787519	87.620345	37.926236	169.334101
	13.593718	45.539671	86.672324	40.953649	173.165644
	13.790743	44.743238	87.936352	38.085574	170.765164
	13.224296	46.654677	87.620345	39.838286	174.113308
	13.716859	46.336103	89.200380	41.272324	176.808807
	13.224296	44.743238	89.516387	38.085574	172.345199
	14.086281	46.017530	89.042377	39.200936	174.260843
	13.224296	44.265379	91.254426	39.519611	175.039416
	13.889256	43.787519	87.462342	37.607561	168.857422
	13.101155	45.698957	90.148401	38.882261	174.729620
	13.790743	46.336103	88.568366	38.244911	173.149381
	13.150412	46.017530	88.252359	39.678949	173.948838
	13.839999	45.061811	87.462342	37.607561	170.131714
	13.051899	44.583952	86.988331	37.607561	169.179844
	13.815371	44.743238	87.620345	39.041599	171.405182
	12.904130	45.698957	88.094356	38.563586	172.356899
	13.889256	45.061811	86.514321	37.288886	168.865018
	12.978015	46.973249	88.094356	39.041599	174.109204
	13.766115	43.150374	85.408296	39.041599	167.600268
	13.002643	45.380384	87.778349	38.085574	171.244307
	13.569090	46.973249	86.198314	38.404249	171.575811
	12.854874	43.150374	86.356317	38.404249	167.910939
	13.913884	45.858244	87.620345	39.041599	172.520188
	13.051899	43.946806	88.568366	38.244911	170.760083
	13.766115	44.743238	85.882306	38.085574	168.711118
	13.248924	45.858244	88.252359	39.360274	173.470877
	13.667603	46.495390	87.778349	38.563586	172.837325
	12.978015	45.539671	86.988331	36.970211	169.498213
	13.544462	45.698957	90.148401	39.678949	175.526307
	13.372065	42.672514	85.882306	37.448224	166.003044
	13.593718	46.336103	89.674391	38.244911	174.255405
	13.519834	45.221098	89.516387	39.519611	174.257096
	13.445949	45.539671	90.148401	41.112986	176.801058
	13.618346	43.150374	87.620345	38.085574	168.856292
	13.642974	44.743238	90.622412	38.244911	173.610561
	13.815371	44.424665	87.620345	40.316299	172.361309
	13.741487	43.946806	87.936352	37.129549	169.012707
	13.790743	45.061811	88.252359	38.722924	172.037094
	13.396693	44.583952	87.778349	41.590999	173.953299
	13.790743	47.291822	89.516387	40.475636	177.283846
	13.150412	44.743238	87.462342	37.607561	169.813141
	13.815371	47.451109	88.410363	40.794311	176.655782
	12.978015	45.221098	88.252359	39.200936	172.674393
	13.692231	46.017530	87.146335	38.404249	171.568113
	12.879502	45.539671	88.884373	39.838286	174.262330
	13.593718	46.017530	88.252359	40.156961	174.426850
	13.224296	46.017530	88.884373	39.041599	173.943502
	13.495206	47.769682	89.358384	40.634974	177.763039
	13.076527	46.336103	88.884373	39.041599	174.262075
	13.519834	45.858244	86.514321	41.431661	173.804226
	13.150412	45.539671	88.410363	38.563586	172.513620
	13.519834	49.362547	89.674391	39.519611	178.556548
	13.495206	47.291822	90.938419	43.025036	181.255277
	13.421321	46.176817	88.252359	39.360274	173.789449
	13.495206	43.787519	88.094356	37.607561	169.489436
	13.716859	44.743238	90.780415	39.519611	175.043264
	13.839999	47.291822	89.832394	40.794311	177.918527
	13.347437	44.106093	89.674391	35.536174	169.316657
	13.815371	46.495390	89.358384	38.404249	174.258022
	13.298181	43.468946	87.936352	37.448224	168.853522
	13.839999	45.221098	88.726370	39.200936	173.148404
	13.593718	47.132536	90.306405	38.244911	175.683852
	13.692231	43.628233	87.462342	37.766899	168.857473
	13.495206	45.698957	88.568366	40.634974	174.902297
	13.692231	46.017530	89.200380	39.200936	174.418847
	13.470577	46.813963	87.462342	39.360274	173.636578
	13.815371	46.495390	88.568366	42.228349	177.292105
	13.298181	45.698957	87.462342	38.722924	171.884223
	13.790743	45.380384	88.410363	39.519611	173.310358
	12.608593	42.831800	87.462342	39.519611	169.813753
	13.716859	45.061811	86.356317	38.244911	169.663039
	13.076527	47.928968	90.464408	41.112986	179.506362
	13.593718	47.769682	87.462342	40.953649	176.185672
	13.027271	45.698957	89.042377	39.678949	174.420282
	13.618346	46.495390	90.464408	39.200936	176.160734
	13.224296	47.291822	89.516387	40.475636	177.283846
	13.618346	47.132536	92.834461	40.794311	180.761307
	13.273552	45.539671	87.778349	37.607561	170.925580
	13.445949	46.813963	91.886440	39.519611	178.220013
	13.421321	48.884687	91.570433	41.909674	182.364794
	13.396693	45.539671	91.412429	40.953649	177.905749
	13.667603	49.840406	90.464408	40.156961	180.461775
	13.593718	50.796125	91.886440	41.590999	184.273564
	13.815371	47.451109	90.780415	42.069011	180.300535
	13.298181	45.698957	89.990398	38.882261	174.571616
	13.766115	42.991087	87.462342	37.766899	168.220327
	13.322809	43.468946	87.620345	38.563586	169.652877
	13.667603	45.698957	89.042377	39.360274	174.101607
	13.396693	46.495390	88.252359	38.882261	173.630010
	13.938512	46.813963	88.094356	37.926236	172.834555
	12.904130	47.291822	89.674391	40.953649	177.919861
	13.987768	46.973249	88.726370	39.519611	175.219230
	13.101155	45.539671	86.356317	36.492199	168.388186
	13.839999	46.336103	88.884373	40.156961	175.377437
	12.904130	46.654677	88.726370	41.272324	176.653370
	13.667603	44.743238	86.988331	37.926236	169.657806
	13.150412	45.380384	87.620345	38.244911	171.245641
	13.790743	49.203260	90.148401	44.299736	183.651398
	13.248924	45.380384	88.410363	38.085574	171.876321
	13.593718	45.698957	88.726370	39.678949	174.104276
	13.692231	44.424665	88.726370	41.431661	174.582696
	13.642974	47.451109	91.412429	40.316299	179.179837
	13.790743	46.017530	89.200380	39.519611	174.737522
	13.963140	48.406828	92.992464	42.069011	183.468303
	13.544462	49.203260	92.202447	42.228349	183.634056
	13.421321	45.858244	89.832394	38.085574	173.776212
	14.209421	48.247541	89.516387	39.519611	177.283540
	13.667603	45.858244	91.728436	39.838286	177.424966
	14.110909	46.654677	89.200380	38.882261	174.737318
	13.396693	46.654677	90.622412	39.838286	177.115374
	13.815371	46.495390	89.832394	40.156961	176.484745
	13.372065	46.654677	88.094356	41.750336	176.499368
	14.012396	45.858244	88.726370	38.882261	173.466875
	13.298181	48.884687	89.674391	40.316299	178.875377
	13.864628	47.132536	90.148401	42.228349	179.509286
	13.298181	46.654677	88.252359	39.041599	173.948634
	13.741487	46.176817	88.094356	38.722924	172.994096
	13.199668	45.858244	89.674391	40.953649	176.486283
	13.642974	47.928968	89.832394	40.475636	178.236999
	13.125784	46.654677	89.832394	38.882261	175.369332
	13.766115	48.088255	88.410363	39.838286	176.336904
	13.076527	46.495390	89.200380	39.997624	175.693394
	13.692231	46.654677	87.778349	37.766899	172.199924
	14.086281	47.769682	89.358384	38.722924	175.850989
	13.544462	45.380384	90.306405	38.882261	174.569050
	13.987768	46.813963	89.358384	38.722924	174.895270
	13.593718	46.813963	92.834461	39.200936	178.849360
	14.012396	48.566114	90.148401	39.678949	178.393464
	13.667603	46.973249	91.570433	40.634974	179.178655
	13.839999	46.654677	89.832394	38.404249	174.891319
	13.766115	46.973249	90.780415	39.997624	177.751288
	14.061653	45.698957	89.516387	41.112986	176.328331
	13.470577	47.610396	90.148401	39.838286	177.597083
	13.963140	46.973249	89.516387	39.678949	176.168585
	13.076527	48.406828	89.358384	42.228349	179.993560
	14.381818	48.566114	90.938419	41.431661	180.936194
	13.273552	46.176817	88.884373	38.882261	173.943451
	13.987768	47.610396	88.094356	39.360274	175.065025
	13.027271	48.247541	91.254426	41.431661	180.933628
	13.618346	48.725401	89.990398	40.953649	179.669447
	13.150412	44.743238	87.620345	37.448224	169.811807
	13.938512	47.132536	89.200380	40.634974	176.967890
	13.470577	47.928968	90.148401	40.634974	178.712343
	13.667603	47.451109	88.884373	39.997624	176.333105
	13.569090	49.043974	89.042377	39.041599	177.127949
	13.839999	47.132536	88.884373	42.387686	178.404595
	13.741487	44.583952	87.146335	36.492199	168.222485
	13.790743	45.698957	89.832394	39.838286	175.369638
	13.938512	45.061811	89.200380	40.475636	174.737828
	13.642974	46.813963	89.832394	39.360274	176.006631
	14.135537	46.336103	89.832394	39.041599	175.210096
	13.519834	47.132536	90.780415	38.722924	176.635874
	14.258678	45.698957	88.726370	38.882261	173.307588
	13.963140	48.088255	92.518454	38.722924	179.329632
	13.913884	48.884687	90.622412	38.244911	177.752010
	13.839999	43.946806	88.568366	37.129549	169.644721
	14.307934	43.787519	87.146335	36.810874	167.744728
	13.593718	45.221098	91.412429	37.448224	174.081751
	14.086281	47.132536	90.148401	40.316299	177.597236
	14.037025	46.336103	89.358384	40.475636	176.170123
	13.987768	47.610396	90.306405	39.041599	176.958399
	13.199668	49.043974	89.516387	39.519611	178.079972
	14.135537	44.743238	88.094356	40.156961	172.994555
	13.470577	47.291822	90.148401	39.041599	176.481822
	14.110909	45.221098	87.778349	38.563586	171.563033
	13.569090	49.999693	92.676457	44.299736	186.975886
	14.012396	47.610396	89.832394	40.156961	177.599750
	13.248924	49.362547	91.728436	41.750336	182.841319
	14.110909	45.061811	85.408296	37.288886	167.758994
	13.298181	48.884687	92.518454	42.706361	184.109502
	14.086281	49.362547	91.412429	40.794311	181.569287
	12.978015	45.698957	88.884373	37.607561	172.190891
	14.012396	46.973249	88.726370	39.997624	175.697243
	12.904130	45.221098	88.094356	39.838286	173.153740
	13.815371	49.043974	92.992464	40.634974	182.671412
	13.051899	49.681120	91.412429	40.794311	181.887860
	13.766115	47.610396	92.834461	42.865699	183.310555
	13.396693	47.769682	90.780415	39.997624	178.547720
	13.692231	49.043974	91.412429	39.997624	180.454026
	13.298181	46.813963	90.464408	42.069011	179.347382
	13.790743	47.928968	93.782482	39.997624	181.709074
	13.642974	46.336103	90.938419	39.200936	176.475458
	13.618346	47.451109	91.412429	40.156961	179.020499
	13.618346	47.291822	90.148401	39.838286	177.278510
	13.495206	47.769682	89.042377	38.404249	175.216307
	13.913884	47.610396	88.726370	38.722924	175.059689
	13.667603	45.221098	88.410363	38.722924	172.354384
	13.889256	47.132536	89.042377	37.607561	173.782474
	13.741487	49.043974	89.200380	38.563586	176.807940
	14.184793	46.973249	87.778349	39.678949	174.430546
	13.593718	46.176817	89.516387	38.404249	174.097453
	13.815371	46.017530	87.462342	37.448224	170.928096
	13.618346	47.132536	89.832394	39.519611	176.484541
	14.110909	45.698957	91.096422	39.997624	176.793003
	13.593718	47.451109	90.780415	39.200936	177.432460
	13.815371	46.495390	89.832394	39.678949	176.006732
	13.298181	48.566114	91.254426	43.025036	182.845576
	13.766115	48.725401	92.834461	40.953649	182.513510
	13.150412	48.725401	91.886440	40.953649	181.565489
	14.110909	48.247541	92.360450	40.794311	181.402303
	13.273552	47.132536	90.780415	40.156961	178.069912
	14.110909	48.088255	91.886440	39.519611	179.494305
	13.372065	49.203260	91.728436	40.953649	181.885345
	13.741487	47.610396	93.782482	40.794311	182.187188
	13.372065	48.088255	90.938419	40.634974	179.661647
	14.012396	50.318266	94.414496	41.909674	186.642435
	13.347437	48.406828	89.990398	39.519611	177.916837
	13.741487	47.132536	89.200380	42.069011	178.401927
	13.618346	47.132536	89.516387	39.041599	175.690521
	13.569090	46.813963	88.410363	38.404249	173.628574
	13.667603	45.858244	89.832394	41.590999	177.281637
	13.569090	47.132536	89.358384	39.360274	175.851193
	13.987768	45.698957	89.990398	39.519611	175.208966
	13.667603	44.743238	88.410363	38.882261	172.035862
	13.889256	46.973249	89.200380	39.519611	175.693241
	13.544462	48.406828	91.570433	39.519611	179.496871
	14.234050	45.539671	85.250293	36.014186	166.804149
	13.864628	46.495390	89.990398	39.519611	176.005399
	13.987768	45.698957	86.988331	36.651536	169.338824
	13.642974	46.495390	89.832394	38.404249	174.732033
	14.012396	47.291822	90.306405	38.882261	176.480488
	13.692231	46.813963	89.832394	37.926236	174.572593
	14.135537	45.061811	91.096422	36.492199	172.650432
	13.347437	47.132536	90.464408	39.997624	177.594568
	13.864628	44.902525	89.990398	38.722924	173.615846
	13.569090	46.813963	90.148401	38.404249	175.366613
	14.160165	45.380384	92.992464	39.838286	178.211135
	13.396693	49.362547	92.834461	44.299736	186.496744
	14.160165	47.769682	91.254426	39.360274	178.384381
	12.953387	46.336103	89.990398	39.041599	175.368100
	14.184793	49.043974	91.254426	42.069011	182.367411
	13.224296	46.336103	89.516387	39.360274	175.212764
	13.889256	45.380384	88.410363	37.448224	171.238971
	13.248924	47.610396	89.832394	38.404249	175.847038
	13.716859	47.769682	90.464408	41.272324	179.506414
	13.248924	47.132536	89.832394	39.519611	176.484541
	13.716859	46.017530	89.200380	38.404249	173.622159
	13.322809	47.451109	89.832394	40.475636	177.759139
	14.012396	47.610396	89.990398	42.228349	179.829142
	13.347437	47.132536	88.094356	39.200936	174.427828
	13.839999	49.840406	89.674391	39.200936	178.715733
	13.495206	44.106093	87.146335	39.041599	170.294026
	13.790743	47.132536	90.148401	39.041599	176.322536
	13.839999	43.309660	86.830328	37.288886	167.428874
	13.987768	47.451109	91.412429	40.953649	179.817187
	13.815371	44.902525	86.830328	37.448224	169.181076
	13.889256	47.132536	90.464408	39.041599	176.638543
	14.135537	47.291822	90.306405	39.041599	176.639826
	13.913884	46.176817	89.990398	39.678949	175.846163
	14.283306	45.858244	92.202447	37.129549	175.190239
	13.790743	46.495390	90.622412	39.678949	176.796750
	14.258678	45.539671	89.200380	38.085574	172.825625
	13.963140	47.451109	90.938419	37.926236	176.315764
	14.184793	49.043974	90.464408	40.794311	180.302693
	13.839999	48.884687	90.464408	40.156961	179.506056
	14.332562	46.176817	89.042377	38.722924	173.942117
	13.692231	46.495390	89.200380	38.085574	173.781344
	14.061653	45.221098	89.832394	39.678949	174.732440
	13.495206	45.221098	88.568366	40.316299	174.105763
	14.061653	49.840406	92.518454	41.272324	183.631183
	13.224296	46.973249	89.358384	39.519611	175.851244
	13.987768	48.566114	90.148401	41.909674	180.624189
	13.347437	46.495390	89.042377	39.997624	175.535390
	13.716859	47.132536	90.622412	38.882261	176.637209
	13.396693	48.088255	89.516387	39.519611	177.124253
	13.987768	46.813963	90.464408	39.838286	177.116657
	13.273552	46.176817	87.778349	37.448224	171.403389
	13.815371	46.495390	89.832394	38.244911	174.572695
	13.248924	48.088255	89.674391	40.156961	177.919606
	13.913884	46.813963	90.148401	39.360274	176.322638
	13.199668	47.769682	91.570433	39.360274	178.700388
	14.160165	49.203260	89.990398	39.041599	178.235257
	13.224296	48.088255	92.202447	43.503049	183.793750
	14.184793	46.176817	89.674391	38.563586	174.414793
	13.199668	45.698957	91.886440	39.360274	176.945671
	13.815371	47.132536	91.412429	41.909674	180.454638
	13.519834	48.406828	94.414496	40.634974	183.456297
	13.963140	45.698957	89.358384	37.129549	172.186890
	13.519834	48.247541	91.412429	39.678949	179.338919
	13.839999	46.973249	91.254426	40.316299	178.543974
	13.470577	47.769682	89.990398	39.041599	176.801678
	13.864628	46.813963	90.464408	39.997624	177.275994
	13.938512	46.495390	89.674391	39.360274	175.530054
	13.692231	50.158980	92.992464	41.272324	184.423767
	14.086281	47.610396	91.096422	39.519611	178.226428
	13.938512	49.203260	87.146335	38.722924	175.072519
	14.037025	46.017530	90.622412	38.882261	175.522203
	13.864628	46.813963	88.568366	38.085574	173.467903
	14.061653	45.539671	90.622412	39.519611	175.681693
	13.741487	45.539671	89.516387	40.953649	176.009707
	14.234050	46.654677	89.832394	37.766899	174.253969
	13.913884	46.654677	89.042377	39.519611	175.216664
	14.160165	48.088255	90.622412	41.590999	180.301665
	13.889256	47.451109	89.832394	39.997624	177.281126
	14.357190	46.495390	89.832394	38.563586	174.891370
	13.642974	48.406828	89.990398	39.200936	177.598162
	14.209421	46.813963	91.412429	40.634974	178.861366
	13.273552	49.521833	93.940485	40.475636	183.937955
	13.815371	43.787519	87.620345	35.536174	166.944038
	13.273552	49.999693	96.626545	42.387686	189.013924
	14.061653	49.521833	92.992464	42.387686	184.901983
	13.298181	46.495390	91.096422	38.244911	175.836723
	13.741487	50.955412	92.202447	40.794311	183.952170
	13.396693	47.291822	92.834461	42.228349	182.354632
	13.815371	46.336103	89.516387	38.244911	174.097401
	13.495206	45.221098	90.148401	39.838286	175.207785
	13.864628	47.610396	91.096422	42.069011	180.775828
	13.495206	49.203260	92.202447	40.953649	182.359356
	13.839999	46.495390	88.726370	38.882261	174.104021
	13.692231	49.203260	90.780415	41.590999	181.574674
	13.741487	47.291822	90.148401	39.678949	177.119172
	13.839999	46.176817	89.832394	38.722924	174.732135
	14.307934	47.610396	91.570433	41.431661	180.612489
	14.086281	47.928968	91.886440	40.316299	180.131707
	13.913884	47.291822	90.464408	38.882261	176.638492
	13.864628	46.017530	89.832394	38.085574	173.935498
	14.012396	50.636839	92.202447	39.997624	182.836909
	14.012396	46.336103	90.780415	38.722924	175.839442
	14.061653	47.132536	91.096422	38.244911	176.473869
	13.938512	44.902525	90.306405	38.882261	174.091191
	13.741487	45.698957	91.570433	41.112986	178.382376
	14.012396	47.132536	90.622412	39.200936	176.955884
	13.642974	45.698957	93.308471	38.722924	177.730352
	14.258678	46.654677	89.516387	40.156961	176.328024
	13.667603	47.451109	91.728436	39.360274	178.539819
	13.987768	45.858244	89.832394	38.404249	174.094887
	13.889256	48.566114	91.570433	40.634974	180.771521
	14.332562	44.902525	88.568366	37.766899	171.237789
	13.495206	46.973249	90.622412	38.404249	175.999910
	14.184793	46.495390	90.148401	39.519611	176.163402
	13.396693	45.380384	88.252359	38.085574	171.718317
	14.209421	46.336103	89.674391	38.722924	174.733418
	13.322809	49.362547	92.360450	40.794311	182.517308
	13.889256	49.362547	90.464408	39.360274	179.187229
	13.495206	47.132536	91.096422	42.547024	180.775982
	13.913884	47.610396	89.042377	38.882261	175.535033
	13.790743	46.017530	91.254426	40.156961	177.428917
	13.815371	45.539671	88.410363	40.794311	174.744345
	14.283306	47.928968	91.254426	39.997624	179.181018
	13.815371	47.451109	91.570433	39.360274	178.381815
	14.110909	48.566114	90.622412	41.750336	180.938862
	13.815371	47.132536	92.202447	39.838286	179.173269
	14.135537	46.973249	90.622412	39.200936	176.796597
	13.815371	46.973249	92.044443	41.272324	180.290016
	14.332562	44.583952	88.094356	36.492199	169.170506
	14.110909	47.928968	93.150468	39.360274	180.439709
	13.938512	46.495390	90.306405	38.404249	175.206043
	13.716859	52.070417	93.308471	41.590999	186.969887
	14.061653	43.628233	87.620345	34.739486	165.988064
	13.470577	50.477552	94.730503	41.750336	186.958391
	14.800497	48.725401	91.728436	41.112986	181.566823
	13.298181	46.495390	91.570433	41.112986	179.178809
	13.913884	47.451109	91.570433	39.519611	178.541153
	13.199668	45.858244	88.884373	39.200936	173.943553
	14.012396	47.291822	90.780415	41.909674	179.981911
	13.199668	48.088255	90.938419	40.794311	179.820985
	13.839999	48.725401	91.570433	40.475636	180.771470
	13.495206	49.203260	90.622412	40.953649	180.779321
	13.889256	45.698957	88.884373	38.563586	173.146916
	13.618346	47.769682	91.096422	39.519611	178.385715
	13.790743	47.291822	90.306405	39.360274	176.958501
	13.790743	46.495390	90.464408	39.838286	176.798084
	13.741487	47.610396	89.200380	39.997624	176.808399
	14.012396	48.884687	92.044443	40.634974	181.564104
	13.741487	50.158980	89.516387	39.678949	179.354315
	14.234050	46.336103	89.990398	40.634974	176.961475
	13.519834	48.247541	91.886440	39.838286	179.972267
	14.086281	43.787519	89.042377	38.085574	170.915470
	13.544462	46.176817	92.676457	41.750336	180.603610
	13.987768	47.291822	90.780415	38.722924	176.795161
	13.445949	46.495390	91.728436	39.360274	177.584100
	14.012396	49.521833	91.412429	42.547024	183.481286
	13.150412	46.495390	89.832394	38.882261	175.210045
	13.864628	47.451109	90.622412	40.156961	178.230481
	13.051899	47.451109	90.938419	42.069011	180.458539
	13.864628	49.043974	91.728436	40.953649	181.726059
	13.495206	49.521833	91.412429	41.272324	182.206586
	13.963140	47.769682	90.622412	39.997624	178.389717
	13.593718	49.203260	90.148401	39.997624	179.349285
	13.495206	49.043974	92.044443	40.634974	181.723390
	13.938512	46.973249	89.990398	37.926236	174.889883
	13.815371	49.203260	89.832394	39.997624	179.033278
	13.938512	46.973249	91.096422	42.069011	180.138683
	13.790743	46.654677	89.042377	38.085574	173.782627
	13.692231	43.787519	87.936352	37.129549	168.853420
	13.913884	46.336103	88.252359	41.590999	176.179461
	14.307934	47.928968	90.306405	39.838286	178.073659
	13.790743	46.813963	89.200380	39.360274	175.374617
	14.037025	50.318266	91.886440	43.025036	185.229742
	13.692231	46.973249	91.412429	39.997624	178.383302
	14.012396	46.654677	92.360450	38.404249	177.419375
	13.495206	47.132536	89.516387	39.519611	176.168534
	14.110909	44.902525	88.568366	38.085574	171.556465
	13.544462	46.495390	91.254426	39.519611	177.269427
	13.889256	47.132536	91.096422	38.882261	177.111219
	13.495206	51.751844	95.836527	42.228349	189.816720
	13.889256	47.291822	91.412429	41.112986	179.817238
	13.396693	45.061811	89.200380	36.492199	170.754390
	14.037025	47.928968	92.992464	42.228349	183.149781
	13.396693	46.336103	88.726370	40.794311	175.856784
	13.889256	47.291822	90.464408	38.404249	176.160479
	13.273552	47.451109	90.148401	39.519611	177.119121
	14.701984	48.406828	89.516387	41.590999	179.514214
	12.879502	48.247541	91.886440	40.794311	180.928292
	13.938512	47.132536	89.042377	39.519611	175.694524
	13.593718	47.769682	91.254426	41.909674	180.933781
	13.716859	46.017530	89.516387	39.041599	174.575516
	13.667603	47.132536	90.306405	38.404249	175.843189
	13.938512	46.973249	88.568366	39.041599	174.583214
	13.741487	49.840406	92.834461	42.069011	184.743878
	13.938512	46.813963	89.200380	37.926236	173.940579
	13.815371	49.043974	92.676457	40.316299	182.036730
	14.061653	51.433271	90.306405	40.953649	182.693325
	14.086281	45.698957	89.674391	40.794311	176.167659
	13.889256	47.132536	89.042377	38.882261	175.057174
	13.963140	45.221098	91.096422	39.997624	176.315144
	13.938512	46.495390	92.202447	43.184374	181.882210
	14.234050	48.247541	91.570433	40.316299	180.134273
	13.790743	47.769682	92.676457	40.316299	180.762438
	14.184793	47.291822	89.516387	39.997624	176.805833
	14.086281	45.858244	90.938419	38.244911	175.041574
	14.110909	48.566114	92.044443	40.156961	180.767518
	13.839999	47.928968	93.940485	39.678949	181.548402
	14.037025	46.017530	89.990398	39.200936	175.208864
	13.642974	45.539671	89.832394	36.970211	172.342276
	14.012396	46.495390	90.464408	39.041599	176.001396
	13.667603	50.955412	90.780415	41.272324	183.008150
	14.307934	46.336103	89.832394	38.882261	175.050759
	13.347437	47.132536	89.516387	38.244911	174.893834
	13.839999	48.884687	92.518454	42.706361	184.109502
	13.199668	47.610396	92.044443	42.228349	181.883187
	13.716859	48.406828	90.306405	40.475636	179.188869
	13.322809	47.451109	90.622412	40.316299	178.389819
	13.913884	48.406828	89.200380	42.069011	179.676219
	13.421321	44.106093	88.568366	37.288886	169.963345
	13.618346	46.813963	91.570433	40.953649	179.338044
	13.347437	47.769682	90.622412	40.953649	179.345742
	13.913884	46.336103	89.832394	39.519611	175.688108
	13.593718	47.132536	90.464408	39.200936	176.797880
	13.913884	46.176817	91.570433	39.200936	176.948186
	13.741487	44.902525	88.568366	38.244911	171.715802
	13.667603	46.813963	92.044443	38.404249	177.262654
	13.667603	47.451109	91.412429	39.360274	178.223812
	13.839999	50.318266	92.044443	40.156961	182.519670
	13.889256	48.566114	92.676457	43.184374	184.426945
	13.889256	46.017530	92.676457	37.607561	176.301548
	13.839999	44.743238	90.306405	39.041599	174.091242
	13.963140	46.654677	92.360450	42.228349	181.243475
	13.815371	43.787519	87.304338	36.332861	167.424719
	13.963140	50.477552	94.098489	43.184374	187.760415
	14.184793	51.273985	93.308471	45.255761	189.838217
	13.963140	46.176817	90.306405	39.360274	175.843495
	14.110909	46.495390	89.516387	38.563586	174.575363
	13.716859	46.813963	87.620345	37.766899	172.201206
	14.135537	47.132536	90.938419	40.634974	178.705928
	13.569090	46.017530	89.358384	38.404249	173.780163
	14.086281	45.858244	88.726370	38.244911	172.829525
	13.766115	46.654677	89.832394	39.519611	176.006682
	14.209421	46.176817	87.462342	40.634974	174.274132
	13.642974	46.495390	89.832394	38.085574	174.413358
	14.234050	46.813963	87.462342	38.244911	172.521216
	13.273552	46.813963	91.412429	43.025036	181.251428
	14.110909	46.336103	90.938419	38.882261	176.156783
	13.224296	47.451109	90.780415	40.156961	178.388485
	13.987768	47.451109	91.412429	42.228349	181.091887
	13.396693	46.176817	90.938419	39.041599	176.156834
	14.184793	47.451109	92.202447	39.678949	179.332504
	13.396693	47.610396	90.464408	41.750336	179.825140
	13.716859	45.858244	92.360450	39.360274	177.578968
	13.150412	47.451109	91.254426	39.519611	178.225145
	13.839999	45.858244	91.254426	39.678949	176.791618
	13.642974	46.176817	90.622412	39.678949	176.478177
	13.839999	48.884687	93.782482	40.316299	182.983468
	13.642974	47.610396	92.360450	39.519611	179.490457
	13.913884	49.203260	90.938419	39.519611	179.661290
	13.938512	47.769682	91.412429	41.909674	181.091785
	13.593718	46.176817	88.568366	37.607561	172.352744
	13.667603	45.061811	89.200380	38.722924	172.985115
	13.790743	46.973249	91.412429	42.706361	181.092039
	14.160165	47.132536	90.148401	39.360274	176.641210
	13.642974	45.858244	89.674391	39.041599	174.574233
	14.012396	47.769682	89.358384	41.909674	179.037739
	13.569090	45.061811	88.884373	37.926236	171.872421
	14.110909	45.221098	88.410363	37.288886	170.920346
	13.987768	46.654677	88.884373	38.085574	173.624623
	13.987768	46.654677	88.884373	39.997624	175.536673
	13.790743	46.176817	90.148401	38.244911	174.570129
	14.110909	46.495390	89.042377	39.360274	174.898040
	13.815371	48.088255	91.412429	40.475636	179.976320
	14.258678	46.495390	91.886440	38.722924	177.104753
	13.692231	47.610396	91.096422	39.519611	178.226428
	14.160165	44.902525	92.834461	39.200936	176.937922
	13.667603	42.035368	87.462342	35.217499	164.715208
	14.455703	45.698957	89.990398	37.448224	173.137579
	13.544462	46.495390	90.938419	39.678949	177.112757
	14.061653	47.610396	89.516387	41.750336	178.877119
	13.667603	47.132536	90.306405	39.360274	176.799214
	14.110909	46.654677	90.306405	39.519611	176.480692
	13.569090	49.840406	91.096422	41.431661	182.368490
	14.012396	46.495390	89.516387	39.838286	175.850063
	13.421321	47.928968	91.254426	40.156961	179.340355
	14.086281	46.973249	90.306405	39.678949	176.958602
	13.273552	44.583952	88.568366	38.404249	171.556567
	14.406447	46.495390	89.358384	38.085574	173.939347
	13.421321	46.336103	88.884373	38.244911	173.465387
	13.864628	50.477552	92.676457	41.909674	185.063683
	13.421321	50.796125	93.624478	44.618411	189.039015
	13.815371	46.973249	90.306405	38.882261	176.161915
	13.741487	45.380384	85.882306	36.332861	167.595552
	14.061653	44.583952	89.516387	40.634974	174.735313
	13.372065	46.973249	89.200380	39.360274	175.533903
	13.864628	45.698957	89.990398	39.041599	174.730953
	13.445949	45.858244	89.516387	40.953649	176.328280
	14.110909	45.858244	89.990398	38.722924	174.571565
	13.027271	47.769682	90.938419	40.475636	179.183737
	13.815371	49.043974	91.096422	41.431661	181.572057
	13.421321	45.061811	90.464408	39.041599	174.567818
	13.790743	47.291822	91.096422	39.200936	177.589180
	13.495206	46.654677	93.150468	39.997624	179.802768
	13.889256	47.769682	90.780415	39.997624	178.547720
	13.741487	46.813963	90.780415	38.882261	176.476639
	13.987768	46.973249	90.464408	39.200936	176.638594
	13.790743	47.451109	90.148401	40.953649	178.553159
	13.963140	45.539671	90.148401	38.722924	174.410996
	13.790743	49.840406	93.466475	41.909674	185.216555
	13.938512	47.291822	90.938419	40.634974	178.865215
	14.086281	47.132536	89.832394	40.794311	177.759241
	13.692231	47.610396	89.674391	39.200936	176.485722
	13.889256	48.406828	91.412429	41.112986	180.932243
	13.839999	46.813963	88.094356	39.997624	174.905942
	13.790743	43.628233	88.252359	37.129549	169.010140
	13.815371	45.858244	88.094356	38.244911	172.197511
	13.864628	46.336103	89.990398	39.997624	176.324125
	13.815371	46.813963	89.674391	40.156961	176.645315
	13.716859	45.698957	89.200380	36.651536	171.550874
	13.667603	46.973249	91.412429	39.200936	177.586614
	14.283306	48.566114	90.938419	39.997624	179.502157
	13.913884	46.813963	90.622412	39.360274	176.796648
	14.184793	47.291822	90.938419	39.041599	177.271839
	13.766115	48.247541	92.834461	40.475636	181.557638
	14.234050	44.265379	89.832394	40.475636	174.573409
	13.864628	46.973249	93.466475	39.041599	179.481323
	14.086281	46.654677	92.360450	40.794311	179.809438
	13.839999	44.424665	91.412429	40.634974	176.472068
	13.963140	45.221098	89.200380	38.085574	172.507052
	13.692231	48.247541	94.888506	40.475636	183.611684
	14.160165	48.247541	89.832394	39.838286	177.918222
	13.667603	46.973249	92.676457	40.953649	180.603355
	14.086281	46.495390	92.676457	38.404249	177.576096
	13.569090	45.539671	89.200380	39.200936	173.940987
	13.987768	46.017530	90.148401	39.678949	175.844880
	13.593718	46.813963	90.938419	39.200936	176.953318
	13.790743	45.858244	89.516387	38.563586	173.938217
	13.766115	48.088255	92.360450	39.360274	179.808979
	13.889256	45.698957	89.042377	39.360274	174.101607
	14.160165	47.610396	91.096422	39.041599	177.748416
	13.913884	45.539671	89.200380	39.997624	174.737674
	13.667603	45.221098	88.884373	39.519611	173.625082
	14.012396	45.061811	91.570433	38.085574	174.717818
	13.372065	46.336103	91.570433	40.316299	178.222835
	13.889256	49.840406	94.414496	43.981061	188.235963
	13.273552	45.221098	91.096422	39.041599	175.359119
	13.815371	46.336103	92.676457	40.156961	179.169522
	13.519834	46.176817	90.148401	39.838286	176.163504
	14.012396	44.902525	92.992464	39.997624	177.892613
	13.322809	48.088255	93.150468	41.112986	182.351709
	13.716859	47.769682	94.414496	42.547024	184.731201
	13.273552	49.681120	94.888506	44.937086	189.506712
	13.569090	47.769682	94.572499	44.618411	186.960592
	12.854874	49.681120	96.942552	48.442511	195.066183
	12.978015	49.521833	98.206580	52.107274	199.835687
	12.091402	52.070417	103.420695	60.552161	216.043273
	12.510080	54.619002	104.684723	63.260898	222.564623
	11.746608	54.459715	108.002797	68.519036	230.981548
	11.968261	57.167586	111.320870	75.529886	244.018342
	10.761483	60.353316	115.586965	80.469349	256.409628
	11.130905	60.194029	117.008996	83.496761	260.699786
	10.367433	60.353316	116.218979	86.683511	263.255805
	10.539830	59.079023	118.431028	88.595561	266.105612
	9.480820	58.601164	117.008996	88.436224	264.046384
	9.850242	59.238310	119.379049	90.985624	269.602982
	8.668092	58.760450	117.008996	91.782311	267.551758
	9.086770	58.123305	117.641010	90.507611	266.271926
	8.249413	56.689726	114.954951	88.914236	260.558913
	8.372554	59.079023	115.428961	88.754898	263.262883
	7.929248	53.981855	114.796947	86.842849	255.621651
	7.929248	52.866850	110.846860	82.540736	246.254446
	7.633710	50.318266	111.320870	81.106699	242.745835
	7.879991	49.043974	106.580765	79.194648	234.819388
	7.461313	47.610396	104.368716	74.255186	226.234298
	7.584454	46.017530	100.734635	70.431086	217.183252
	7.264288	46.017530	98.364583	70.112411	214.494525
	7.362801	41.557508	95.204513	63.260898	200.022920
	7.239660	39.646071	92.676457	60.392824	192.715351
	7.190404	40.920362	93.150468	62.782886	196.853716
	7.042635	36.938200	88.568366	54.816011	180.322577
	6.919494	36.938200	86.988331	53.063299	176.989830
	6.820982	32.159605	82.722237	48.601849	163.483690
	6.993379	39.646071	86.988331	52.585286	179.219688
	7.091891	31.522459	81.300205	44.299736	157.122400
	6.820982	31.203886	79.404163	43.821724	154.429773
	7.215032	31.841032	80.826194	44.777749	157.444975
	6.919494	29.611021	79.246160	44.299736	153.156916
	6.796354	31.044600	80.194181	42.706361	153.945141
	6.944122	29.133161	77.192114	42.706361	149.031637
	6.673213	30.726026	79.562167	46.211786	156.499979
	6.599328	30.885313	78.930153	44.618411	154.433876
	7.091891	29.929594	79.246160	44.777749	153.953502
	6.747097	30.726026	80.352184	47.486486	158.564697
	6.747097	29.929594	81.458208	48.442511	159.830313
	6.500816	31.841032	83.354251	50.832574	166.027856
	6.648585	31.841032	83.986265	53.222636	169.049933
	6.032881	30.566740	86.672324	56.090711	173.329775
	6.574700	33.593183	87.146335	58.002761	178.742279
	6.254535	33.593183	88.726370	60.074149	182.393702
	6.303791	35.026762	89.674391	64.216924	188.918076
	5.761972	35.345335	92.834461	69.634399	197.814194
	6.156022	36.619627	92.992464	69.315723	198.927815
	5.466434	35.663908	93.308471	70.590423	199.562802
	6.008253	35.823194	94.414496	75.689223	205.926913
	5.244781	37.416059	94.572499	74.095849	206.084407
	5.540319	37.256773	94.730503	74.892536	206.879812
	4.973872	39.008924	94.888506	77.601274	211.498704
	5.392550	36.301054	93.466475	74.573861	204.341389
	4.505937	35.823194	93.466475	73.936511	203.226180
	5.367922	35.663908	92.834461	75.211211	203.709580
	4.432053	34.867475	92.992464	72.661811	200.521750
	5.097012	32.159605	88.410363	68.519036	189.089003
	4.555194	35.982481	92.834461	72.661811	201.478753
	5.318666	34.867475	87.146335	68.519036	190.532846
	4.407425	31.522459	88.568366	65.491624	185.582448
	5.023128	31.841032	88.410363	65.491624	185.743018
	4.358168	32.637465	87.146335	65.013611	184.797410
	4.653706	29.292448	85.566300	64.854274	179.713021
	4.136515	30.248167	85.566300	62.464211	178.278678
	4.727590	28.018156	86.514321	62.304874	176.837350
	4.210400	29.451735	84.460275	63.420236	177.332245
	4.949244	29.292448	86.830328	61.508186	177.630962
	4.111887	28.814589	84.302272	61.189511	174.306371
	4.899987	29.451735	84.934286	62.942224	177.328244
	4.358168	28.496015	84.776282	62.145536	175.417834
	4.752219	28.655302	86.198314	61.826861	176.680477
	4.038003	27.540297	83.512254	61.667524	172.720074
	4.407425	27.699583	85.566300	63.898249	177.164131
	4.111887	29.451735	85.882306	64.535599	179.869640
	4.530565	29.292448	84.776282	64.694936	178.763666
	4.259656	31.522459	86.040310	67.084999	184.647768
	4.358168	29.451735	86.830328	67.403673	183.685736
	4.358168	28.177443	84.776282	65.491624	178.445348
	4.259656	29.133161	88.568366	70.271749	187.973276
	4.456681	27.221723	84.302272	68.041024	179.565019
	4.136515	28.973875	86.514321	67.881686	183.369882
	4.579822	30.566740	87.304338	70.590423	188.461501
	4.235028	30.407453	87.462342	71.705786	189.575581
	4.432053	28.655302	87.462342	69.475061	185.592705
	4.161143	27.699583	86.198314	68.678374	182.576270
	4.850731	29.133161	86.356317	71.227774	186.717252
	4.087259	28.018156	86.830328	69.475061	184.323545
	4.653706	29.292448	88.726370	68.678374	186.697191
	3.865606	29.451735	88.568366	71.546448	189.566549
	4.333540	28.973875	88.410363	69.315723	186.699961
	3.570068	28.814589	87.146335	68.359698	184.320622
	4.407425	30.885313	90.306405	70.909098	192.100816
	3.373043	29.292448	84.618279	67.563011	181.473738
	4.358168	27.540297	89.200380	70.431086	187.171762
	3.545440	27.221723	85.408296	67.244336	179.874356
	3.668581	27.062437	88.410363	70.112411	185.585211
	3.299159	26.584578	86.198314	70.749761	183.532652
	3.791721	27.540297	84.776282	68.359698	180.676277
	3.102134	26.903150	85.092289	68.519036	180.514476
	3.471556	28.018156	84.776282	70.271749	183.066187
	3.323787	26.106718	85.250293	68.837711	180.194722
	3.570068	27.540297	85.250293	68.837711	181.628300
	3.619325	26.743864	84.144268	70.112411	181.000543
	3.545440	27.062437	86.198314	69.475061	182.735812
	3.323787	28.496015	85.882306	69.793736	184.172058
	3.274531	27.062437	85.724303	69.634399	182.421139
	3.791721	29.133161	83.670258	68.359698	181.163117
	3.471556	26.266004	85.724303	67.881686	179.871994
	3.914862	26.584578	83.986265	68.519036	179.089878
	3.471556	24.195280	84.460275	68.678374	177.333929
	3.840978	25.628858	86.040310	69.315723	180.984892
	3.471556	27.540297	86.356317	69.315723	183.212337
	3.693209	26.903150	88.410363	69.953074	185.266587
	3.176018	29.929594	86.672324	72.343136	188.945054
	3.816350	25.310286	86.198314	68.519036	180.027635
	3.102134	25.469572	84.460275	68.519036	178.448883
	4.185772	25.788145	86.198314	69.634399	181.620857
	2.954365	25.628858	84.460275	68.997049	179.086182
	3.348415	27.062437	86.514321	70.112411	183.689168
	2.584943	24.195280	83.670258	67.881686	175.747224
	3.471556	27.699583	84.776282	70.749761	183.225626
	2.609571	28.018156	86.198314	71.865123	186.081593
	3.496184	25.788145	84.302272	68.519036	178.609453
	2.905109	30.088881	85.250293	70.590423	185.929597
	2.978993	23.876707	83.038244	68.678374	175.593324
	2.732712	26.106718	83.512254	68.678374	178.297346
	3.102134	24.673140	84.776282	69.793736	179.243158
	2.560315	25.310286	84.618279	71.546448	181.475012
	3.200646	28.336729	86.514321	71.227774	186.078823
	2.978993	26.106718	82.722237	69.953074	178.782028
	2.880481	28.655302	85.724303	72.502473	186.882078
	3.373043	26.425291	84.302272	70.590423	181.317986
	3.052878	25.788145	84.776282	68.837711	179.402138
	3.299159	25.788145	82.248226	68.200361	176.236732
	3.102134	24.832426	84.144268	69.315723	178.292417
	3.471556	24.673140	81.774216	67.403673	173.851029
	2.929737	23.717420	82.722237	67.244336	173.683993
	3.422299	28.655302	86.830328	70.909098	186.394728
	2.929737	25.310286	83.828261	70.431086	179.569633
	3.176018	24.991712	86.356317	68.041024	179.389053
	2.708084	25.150999	83.512254	69.156386	177.819639
	3.249903	23.717420	84.934286	70.749761	179.401467
	2.461802	25.150999	84.302272	68.359698	177.812969
	2.954365	26.425291	84.302272	70.749761	181.477324
	2.511059	26.266004	83.670258	71.705786	181.642048
	3.126762	24.035993	83.038244	68.519036	175.593273
	2.708084	25.947432	84.302272	70.749761	180.999464
	3.102134	22.443129	80.984198	68.519036	171.946363
	2.708084	26.266004	83.986265	71.227774	181.480043
	3.028249	26.106718	84.460275	70.431086	180.998079
	3.003621	24.991712	83.196247	70.431086	178.619046
	2.757340	24.195280	82.880240	68.359698	175.435219
	3.299159	24.035993	81.458208	66.925661	172.419863
	2.905109	24.354567	83.354251	68.678374	176.387191
	3.102134	25.150999	81.142202	68.359698	174.652899
	2.954365	24.195280	83.986265	69.634399	177.815943
	3.126762	23.876707	83.196247	68.041024	175.113978
	2.855852	21.646696	82.248226	67.722348	171.617271
	3.249903	24.354567	83.986265	70.909098	179.249930
	2.954365	24.832426	83.828261	68.837711	177.498398
	3.225274	23.876707	84.460275	68.997049	177.334030
	2.781968	28.018156	84.144268	72.183799	184.346223
	3.299159	23.717420	86.040310	68.997049	178.754779
	2.683456	25.150999	84.776282	69.953074	179.880355
	3.249903	25.628858	85.882306	71.865123	183.376288
	2.314034	22.283842	82.406230	67.722348	172.412420
	2.929737	23.876707	84.934286	68.041024	176.852016
	2.289405	23.558134	83.038244	68.519036	175.115414
	3.200646	23.239561	81.458208	67.244336	171.942105
	2.067752	23.398847	83.038244	68.997049	175.434140
	2.658827	24.354567	84.776282	69.156386	178.287235
	2.264777	27.858870	83.828261	70.271749	181.958879
	2.806596	22.920988	83.196247	72.343136	178.460371
	2.314034	24.832426	83.828261	70.431086	179.091773
	2.634199	23.876707	83.354251	70.112411	177.343368
	2.412546	25.310286	83.196247	72.980486	181.487019
	2.905109	25.469572	85.250293	71.227774	181.947638
	2.190893	24.354567	82.722237	69.953074	177.029877
	2.486431	25.628858	84.618279	73.299161	183.546298
	2.412546	24.035993	84.618279	70.271749	178.926021
	2.486431	25.310286	85.092289	71.068436	181.471011
	2.658827	24.673140	84.934286	72.343136	181.950561
	2.757340	27.381010	85.408296	71.387111	184.176417
	2.658827	22.443129	83.986265	68.519036	174.948429
	2.461802	23.398847	82.880240	69.475061	175.754149
	3.028249	23.558134	85.724303	68.837711	178.120148
	2.486431	20.213117	81.300205	66.447648	167.960971
	2.954365	23.239561	83.670258	68.359698	175.269517
	2.634199	22.761702	84.144268	70.749761	177.655731
	3.028249	22.283842	84.460275	70.431086	177.175203
	2.387918	22.920988	82.564233	68.837711	174.322932
	2.708084	22.124555	83.196247	68.837711	174.158513
	2.166265	24.673140	83.196247	72.024461	179.893847
	2.781968	22.761702	82.090223	69.315723	174.167647
	2.092380	24.354567	83.196247	70.590423	178.141237
	2.683456	24.195280	83.038244	70.909098	178.142622
	1.895355	21.487409	81.458208	69.156386	172.102004
	2.781968	25.788145	84.460275	71.546448	181.794869
	2.043124	23.876707	82.722237	69.953074	176.552017
	2.511059	24.195280	83.512254	71.227774	178.935308
	2.166265	23.239561	82.406230	70.112411	175.758201
	2.412546	23.876707	83.196247	69.793736	176.866690
	2.732712	24.832426	81.142202	70.271749	176.246376
	2.658827	22.124555	83.196247	71.865123	177.185926
	2.511059	23.717420	82.090223	69.793736	175.601379
	2.486431	22.920988	83.354251	70.590423	176.865662
	2.855852	24.673140	84.144268	72.661811	181.479219
	2.584943	23.398847	83.512254	70.271749	177.182850
	2.781968	22.920988	85.566300	69.793736	178.281024
	2.584943	22.602415	82.090223	70.909098	175.601736
	2.905109	22.124555	83.670258	69.475061	175.269874
	2.412546	24.513853	84.460275	70.749761	179.723889
	3.126762	23.398847	82.090223	71.865123	177.354194
	2.412546	23.398847	80.826194	68.041024	172.266066
	3.102134	23.558134	82.880240	70.431086	176.869460
	2.043124	23.239561	83.196247	70.749761	177.185569
	2.757340	23.558134	81.300205	70.271749	175.130088
	1.969240	21.965269	82.406230	68.997049	173.368547
	2.117009	25.469572	85.250293	72.183799	182.903663
	1.796843	20.213117	81.300205	69.793736	171.307059
	2.511059	23.717420	83.828261	73.139824	180.685505
	1.919983	24.354567	83.828261	71.546448	179.729276
	2.338662	23.717420	83.196247	71.227774	178.141441
	2.363290	24.673140	82.880240	73.458498	181.011878
	2.067752	21.965269	83.038244	70.749761	175.753274
	2.437174	24.673140	83.196247	72.343136	180.212523
	2.338662	22.443129	82.722237	72.821149	177.986514
	2.732712	21.646696	80.984198	69.953074	172.583968
	2.363290	23.558134	83.354251	70.749761	177.662146
	2.683456	22.124555	82.722237	70.431086	175.277878
	2.289405	22.920988	82.880240	70.112411	175.913639
	2.905109	21.009550	79.878174	68.997049	169.884772
	2.511059	21.965269	82.090223	69.156386	173.211878
	2.855852	24.513853	83.038244	69.634399	177.186495
	2.240149	20.690977	81.932219	71.227774	173.850970
	2.978993	21.168837	84.144268	68.359698	173.672803
	1.969240	21.805983	83.986265	71.546448	177.338695
	2.806596	22.283842	83.828261	72.502473	178.614576
	1.969240	23.398847	83.354251	70.749761	177.502859
	2.560315	23.080275	83.512254	71.068436	177.660965
	1.944612	23.876707	82.248226	72.183799	178.308732
	2.437174	22.920988	83.038244	71.068436	177.027668
	2.117009	21.646696	80.984198	69.156386	171.787280
	2.289405	22.920988	82.880240	72.024461	177.825689
	2.314034	24.195280	80.984198	70.112411	175.291889
	2.387918	23.717420	83.354251	70.749761	177.821432
	2.387918	20.531690	79.088156	68.519036	168.138883
	2.511059	22.283842	81.774216	69.315723	173.373781
	2.461802	20.690977	81.300205	68.359698	170.350881
	2.363290	23.558134	83.196247	70.431086	177.185467
	2.117009	21.487409	81.616212	69.953074	173.056695
	2.240149	23.558134	83.038244	71.068436	177.664814
	2.363290	22.920988	83.196247	69.156386	175.273621
	2.166265	21.965269	81.932219	69.793736	173.691224
	2.461802	24.035993	82.248226	71.865123	178.149343
	2.043124	22.761702	83.828261	70.590423	177.180386
	2.806596	22.920988	83.670258	70.271749	176.862994
	1.649074	23.558134	83.828261	73.777174	181.163568
	2.387918	21.646696	85.092289	69.793736	176.532721
	1.969240	22.602415	82.722237	70.271749	175.596400
	2.609571	22.283842	83.354251	70.590423	176.228516
	1.698330	23.876707	81.932219	69.953074	175.762000
	2.511059	22.761702	83.670258	69.315723	175.747682
	1.501305	22.602415	82.248226	69.315723	174.166364
	2.412546	25.310286	83.828261	72.183799	181.322345
	1.698330	24.673140	85.250293	73.777174	183.700605
	2.215521	21.009550	79.878174	68.200361	169.088085
	1.772215	21.805983	82.090223	70.590423	174.486628
	2.190893	24.195280	82.564233	73.299161	180.058674
	1.673702	23.080275	81.774216	70.431086	175.285576
	2.190893	21.328123	81.142202	68.997049	171.467373
	2.018496	24.673140	81.616212	72.024461	178.313813
	1.895355	22.920988	83.196247	71.227774	177.345009
	1.895355	22.283842	80.826194	70.271749	173.381785
	2.264777	23.398847	83.828261	71.865123	179.092232
	2.141637	25.469572	85.566300	73.139824	184.175695
	1.747587	22.124555	82.564233	69.793736	174.482525
	2.190893	22.283842	83.196247	70.431086	175.911175
	1.919983	25.947432	83.828261	72.024461	181.800153
	2.363290	21.805983	83.670258	68.997049	174.473289
	2.018496	24.035993	83.986265	70.909098	178.931356
	2.757340	19.098112	82.090223	68.200361	169.388696
	2.264777	25.310286	84.618279	71.227774	181.156338
	2.584943	22.283842	82.406230	69.475061	174.165133
	1.772215	22.283842	82.406230	70.271749	174.961820
	2.141637	26.903150	84.302272	74.892536	186.097958
	1.501305	20.531690	80.984198	68.359698	169.875587
	2.215521	26.106718	85.566300	74.095849	185.768866
	1.599818	23.239561	83.196247	73.777174	180.212982
	2.240149	22.761702	81.932219	71.227774	175.921694
	1.575190	21.805983	81.458208	70.112411	173.376602
	2.190893	21.646696	81.616212	71.068436	174.331344
	1.550562	24.513853	81.932219	71.546448	177.992521
	2.018496	22.124555	81.932219	69.475061	173.531835
	2.166265	20.850264	79.088156	68.041024	167.979443
	2.018496	21.805983	81.616212	70.112411	173.534605
	2.166265	20.690977	80.352184	70.271749	171.314910
	2.043124	22.602415	81.932219	69.634399	174.169033
	2.043124	22.283842	81.932219	71.705786	175.921847
	2.264777	23.876707	83.038244	73.936511	180.851461
	2.412546	23.398847	82.248226	71.227774	176.874847
	1.919983	22.283842	82.406230	70.909098	175.599170
	2.437174	21.805983	80.668191	70.431086	172.905259
	1.870727	21.805983	82.722237	70.909098	175.437318
	2.437174	24.035993	83.670258	71.865123	179.571374
	1.821471	22.761702	83.354251	72.661811	178.777763
	2.387918	23.080275	83.828261	71.068436	177.976971
	1.673702	21.646696	81.616212	69.793736	173.056644
	2.240149	22.124555	81.458208	71.546448	175.129212
	1.698330	24.354567	82.090223	70.909098	177.353888
	2.043124	21.009550	82.090223	69.475061	172.574834
	1.476677	23.080275	82.248226	71.546448	176.874949
	2.314034	20.531690	80.510188	69.475061	170.516939
	1.624446	24.991712	83.354251	71.705786	180.051749
	1.895355	22.283842	82.090223	69.315723	173.689788
	1.673702	20.690977	80.036177	69.315723	170.042877
	2.264777	28.018156	85.882306	75.848561	189.749024
	1.624446	22.124555	81.142202	70.431086	173.697843
	2.092380	21.487409	81.142202	69.793736	172.423347
	2.092380	22.761702	82.090223	73.458498	178.310423
	1.796843	20.213117	81.300205	68.997049	170.510371
	1.969240	22.920988	81.300205	70.909098	175.130291
	1.944612	22.283842	82.406230	71.227774	175.917845
	2.141637	22.283842	80.036177	70.112411	172.432430
	2.117009	22.761702	83.038244	69.953074	175.753018
	2.264777	22.443129	82.880240	69.315723	174.639092
	1.944612	24.195280	81.774216	69.793736	175.763232
	2.412546	21.168837	81.932219	71.546448	174.647504
	2.437174	22.124555	82.248226	69.634399	174.007180
	2.289405	19.735258	82.406230	69.953074	172.094561
	1.673702	23.080275	83.512254	74.095849	180.688377
	2.363290	23.558134	86.198314	71.068436	180.824883
	1.747587	21.646696	82.090223	70.112411	173.849330
	2.387918	23.717420	82.722237	71.865123	178.304780
	1.722958	22.283842	83.196247	71.068436	176.548525
	2.190893	21.328123	79.878174	69.315723	170.522020
	1.649074	22.602415	82.880240	72.502473	177.985129
	2.067752	21.965269	82.090223	70.590423	174.645915
	1.353536	22.283842	82.090223	70.590423	174.964488
	2.043124	22.443129	81.774216	70.749761	174.967105
	1.476677	26.266004	82.880240	72.821149	181.967393
	2.043124	21.168837	82.090223	69.953074	173.212132
	1.427421	22.761702	81.300205	70.909098	174.971005
	1.895355	22.283842	82.880240	71.387111	176.551193
	1.525933	23.239561	81.774216	69.634399	174.648175
	2.289405	22.443129	82.564233	69.953074	174.960435
	1.846099	23.080275	81.774216	71.546448	176.400938
	2.166265	24.195280	82.722237	72.502473	179.419990
	2.092380	22.283842	84.144268	70.590423	177.018533
	2.117009	23.398847	83.196247	72.183799	178.778893
	2.190893	21.328123	82.722237	71.865123	175.915483
	1.870727	21.965269	82.406230	70.271749	174.643247
	2.043124	22.283842	83.512254	70.431086	176.227182
	1.821471	23.080275	83.038244	71.865123	177.983642
	2.437174	22.124555	83.670258	69.315723	175.110536
	1.846099	22.602415	82.880240	70.112411	175.595066
	2.486431	20.053831	81.300205	67.881686	169.235722
	2.067752	25.469572	83.512254	72.183799	181.165625
	2.264777	21.328123	81.932219	70.431086	173.691428
	1.525933	23.558134	83.038244	70.749761	177.346139
	2.067752	21.646696	82.880240	71.227774	175.754710
	1.599818	20.531690	82.090223	72.183799	174.805712
	2.141637	21.805983	80.194181	69.475061	171.475224
	1.402793	21.965269	81.458208	70.431086	173.854563
	2.166265	24.673140	82.406230	72.502473	179.581842
	1.673702	19.735258	79.720170	68.359698	167.815127
	1.969240	22.920988	82.248226	70.431086	175.600300
	1.895355	22.124555	81.458208	71.865123	175.447887
	2.117009	21.965269	82.090223	70.909098	174.964590
	1.796843	22.443129	80.826194	70.590423	173.859746
	1.969240	22.602415	82.564233	71.705786	176.872434
	2.190893	24.673140	83.038244	70.749761	178.461144
	1.846099	20.372404	81.616212	68.200361	170.188977
	2.363290	22.761702	83.828261	70.112411	176.702373
	2.043124	20.053831	81.300205	69.793736	171.147772
	2.363290	22.602415	83.828261	69.953074	176.383750
	1.870727	22.761702	82.406230	70.112411	175.280342
	2.363290	22.124555	85.408296	70.749761	178.282613
	1.969240	23.398847	82.880240	72.343136	178.622224
	2.314034	21.805983	83.196247	69.953074	174.955303
	1.969240	21.965269	82.090223	70.590423	174.645915
	2.314034	22.443129	83.512254	71.865123	177.820506
	1.353536	21.805983	82.564233	70.590423	174.960639
	2.092380	22.920988	83.512254	69.793736	176.226978
	1.255024	22.124555	82.564233	71.227774	175.916562
	1.895355	21.009550	80.036177	69.793736	170.839463
	1.599818	22.920988	82.406230	70.590423	175.917641
	1.969240	22.602415	81.774216	71.068436	175.445066
	1.796843	26.106718	82.564233	72.024461	180.695412
	2.043124	22.443129	82.406230	73.299161	178.148519
	1.821471	22.920988	81.932219	70.431086	175.284293
	1.919983	21.009550	82.406230	71.068436	174.484216
	1.993868	21.965269	81.458208	73.299161	176.722638
	1.747587	22.602415	83.196247	70.749761	176.548423
	1.969240	22.124555	80.510188	70.112411	172.747154
	2.018496	24.991712	82.564233	73.458498	181.014444
	2.166265	21.328123	80.826194	70.431086	172.585404
	1.895355	23.398847	82.722237	71.387111	177.508195
	2.338662	23.558134	85.408296	73.777174	182.743604
	2.117009	22.283842	81.932219	70.271749	174.487810
	1.969240	22.761702	86.198314	71.227774	180.187789
	2.190893	23.080275	83.038244	72.502473	178.620992
	2.486431	21.646696	81.300205	68.678374	171.625274
	1.870727	21.328123	83.038244	70.271749	174.638115
	2.240149	22.761702	82.406230	70.590423	175.758354
	1.821471	19.735258	81.300205	70.271749	171.307212
	2.018496	21.168837	81.774216	69.634399	172.577450
	1.698330	22.602415	82.880240	69.953074	175.435729
	2.166265	24.991712	83.828261	72.980486	181.800459
	1.624446	23.080275	82.090223	72.183799	177.354296
	2.240149	21.487409	81.774216	70.112411	173.374036
	1.624446	23.398847	82.722237	72.024461	178.145545
	2.067752	24.195280	82.406230	73.617836	180.219346
	1.402793	21.805983	81.458208	71.068436	174.332627
	2.092380	21.965269	82.090223	70.749761	174.805253
	1.353536	22.124555	81.932219	72.343136	176.399911
	1.722958	26.425291	86.198314	74.095849	186.719453
	1.156511	19.416685	78.614146	67.881686	165.912517
	1.969240	23.876707	84.618279	72.661811	181.156796
	1.353536	24.832426	81.616212	72.024461	178.473099
	1.969240	21.168837	82.880240	71.068436	175.117513
	1.255024	22.602415	82.722237	70.749761	176.074413
	1.698330	20.213117	82.564233	71.387111	174.164462
	1.279652	21.168837	82.090223	73.299161	176.558220
	1.895355	22.602415	82.564233	70.590423	175.757071
