LabVIEW Measurement	
Writer_Version	2
Reader_Version	2
Separator	Tab
Decimal_Separator	.
Multi_Headings	No
X_Columns	No
Time_Pref	Absolute
Operator	lvuser
Date	2021/05/07
Time	13:20:05.869312912
***End_of_Header***	
	
Channels	5					
Samples	2000	2000	2000	2000	2000	
Date	2021/05/07	2021/05/07	2021/05/07	2021/05/07	2021/05/07	
Time	13:20:05.8693129620585883855	13:20:05.869312912	13:20:05.869312912	13:20:05.869312912	13:20:05.869312912	
Y_Unit_Label	Volts	Volts	Volts	Volts	Volts	
X_Dimension	Time	Time	Time	Time	Time	
X0	0.0000000000000000E+0	0.0000000000000000E+0	0.0000000000000000E+0	0.0000000000000000E+0	0.0000000000000000E+0	
Delta_X	0.001000	0.001000	0.001000	0.001000	0.001000	
***End_of_Header***						
X_Value	cisnienieKomoraGorna	sila1	sila2	sila3	sila1 1	Comment
	2.264777	1.417310	46.855442	-7.644289	40.628464
	1.747587	1.576597	49.541502	-7.006939	44.111160
	1.747587	-2.883425	45.907421	-10.990377	32.033620
	1.575190	-0.494128	46.223428	-10.353027	35.376274
	1.402793	-0.175555	46.855442	-9.237664	37.442224
	1.304280	-1.609133	49.857509	-8.600314	39.648062
	1.993868	-2.405565	45.275407	-7.962964	34.906878
	1.624446	0.143018	45.591414	-8.281639	37.452794
	1.624446	0.461591	46.065425	-9.397001	37.130015
	1.796843	-1.768420	46.381432	-9.397001	35.216011
	2.018496	-0.812701	47.487456	-9.237664	37.437092
	1.673702	-0.812701	46.223428	-9.237664	36.173064
	1.747587	-1.768420	44.169383	-10.193689	32.207274
	1.673702	-1.290560	46.223428	-9.556339	35.376529
	1.796843	-1.609133	45.275407	-10.990377	32.675898
	1.870727	1.258024	49.541502	-6.847602	43.951924
	2.240149	-2.246279	46.223428	-9.397001	34.580148
	1.649074	-1.449847	44.011379	-10.990377	31.571156
	2.240149	-1.131274	46.855442	-8.600314	37.123855
	1.624446	0.939451	47.645460	-8.440977	40.143934
	2.289405	-4.317003	44.169383	-12.743089	27.109290
	1.673702	-0.812701	46.065425	-9.715677	35.537048
	2.166265	1.576597	45.275407	-10.353027	36.498978
	1.624446	-0.812701	46.539435	-9.715677	36.011058
	1.698330	-1.609133	44.959400	-9.237664	34.112603
	1.673702	-2.405565	49.383498	-8.440977	38.536956
	1.846099	-1.927706	45.117404	-12.583752	30.605946
	1.599818	-1.131274	45.117404	-9.715677	34.270454
	2.092380	-1.768420	45.433411	-10.353027	33.311965
	1.821471	2.532316	47.013446	-8.600314	40.945448
	2.215521	-4.317003	45.591414	-11.468389	29.806022
	1.870727	-2.246279	44.643393	-12.105739	30.291375
	1.969240	0.461591	46.539435	-8.759652	38.241375
	1.673702	1.417310	46.223428	-7.006939	40.633800
	1.821471	-3.361285	44.169383	-10.353027	30.455072
	1.624446	0.302305	45.907421	-8.759652	37.450075
	1.846099	-1.609133	46.381432	-9.556339	35.215960
	1.575190	1.735883	48.751484	-8.281639	42.205729
	1.821471	-4.954149	43.537369	-12.424414	26.158805
	1.624446	-0.812701	45.275407	-10.353027	34.109680
	1.772215	-2.405565	45.907421	-10.034352	33.467504
	1.796843	-0.334841	44.959400	-9.237664	35.386895
	1.772215	-0.653414	46.855442	-10.353027	35.849002
	1.575190	-0.016268	47.645460	-8.440977	39.188215
	1.821471	-0.334841	47.645460	-9.078327	38.232292
	1.599818	0.620878	47.961467	-8.122302	40.460043
	1.772215	-1.449847	45.275407	-10.034352	33.791209
	1.452049	-2.086993	44.485390	-11.309052	31.089346
	1.821471	4.284467	49.857509	-5.891577	48.250400
	1.895355	-0.653414	49.857509	-6.369589	42.834506
	1.846099	0.939451	48.593481	-7.006939	42.525993
	1.575190	-0.175555	45.117404	-9.556339	35.385510
	1.649074	0.461591	45.591414	-9.237664	36.815342
	1.525933	-2.405565	46.065425	-10.193689	33.466170
	1.525933	-0.334841	47.171449	-9.556339	37.280269
	1.525933	-0.334841	48.435477	-8.281639	39.818997
	1.772215	1.258024	45.907421	-9.237664	37.927781
	1.575190	-1.290560	47.171449	-7.962964	37.917925
	1.747587	-0.175555	46.223428	-7.484952	38.562922
	1.846099	1.576597	47.645460	-6.528927	42.693130
	1.772215	-1.449847	46.855442	-9.397001	36.008594
	1.747587	-0.494128	48.435477	-8.440977	39.500373
	1.747587	0.143018	47.171449	-8.600314	38.714154
	1.624446	0.302305	45.907421	-10.353027	35.856700
	1.698330	-1.768420	46.065425	-11.627727	32.669279
	1.821471	-0.016268	47.645460	-5.891577	41.737615
	1.698330	1.098737	48.593481	-7.484952	42.207267
	1.796843	1.895170	47.329453	-9.237664	39.986959
	1.624446	0.780165	50.647526	-7.006939	44.420752
	1.649074	-0.494128	47.645460	-8.600314	38.551018
	1.452049	0.620878	47.013446	-8.281639	39.352685
	1.624446	3.806608	48.909488	-8.122302	44.593794
	1.599818	-1.131274	46.697439	-8.600314	36.965851
	1.821471	-0.494128	48.751484	-7.644289	40.613068
	1.870727	0.620878	47.803463	-9.875014	38.549327
	1.969240	3.169462	49.067491	-7.803627	44.433327
	1.673702	-4.157717	43.695372	-12.265077	27.272579
	1.944612	-1.768420	45.117404	-10.193689	33.155295
	1.993868	1.895170	49.699505	-6.210252	45.384424
	2.486431	-0.016268	46.539435	-10.353027	36.170141
	2.166265	0.780165	49.699505	-8.440977	42.038693
	2.338662	-0.653414	47.171449	-5.891577	40.626459
	2.461802	2.532316	45.907421	-7.484952	40.954786
	3.422299	-0.653414	47.013446	-7.962964	38.397068
	4.333540	2.054456	48.435477	-7.166277	43.323657
	7.239660	2.373029	50.963533	-5.413564	47.922999
	11.032392	8.744490	52.701572	-2.386151	59.059910
	16.204300	7.629484	52.543568	-1.270789	58.902263
	21.696374	11.452360	55.545635	0.800599	67.798593
	26.991424	16.230955	59.811729	8.130124	84.172808
	30.907297	26.903150	66.289873	13.069586	106.262609
	32.163332	26.903150	70.397964	16.893686	114.194800
	36.424000	36.778913	78.456142	24.063874	139.298929
	40.536900	41.079649	82.406230	29.959361	153.445240
	44.329634	53.503996	88.884373	37.607561	179.995930
	50.191132	54.937574	94.256492	41.750336	190.944403
	56.028002	68.795500	105.948751	54.178661	228.922912
	63.244049	75.963392	114.164933	65.332286	255.460612
	71.863901	87.909880	123.961150	71.387111	283.258141
	80.015820	92.369902	132.809346	78.716636	303.895884
	88.881957	103.838530	141.341535	89.551586	334.731651
	96.073380	112.121428	151.137752	99.908524	363.167704
	97.748095	123.908629	162.039994	109.468774	395.417396
	105.259686	127.572219	168.518137	115.364261	411.454617
	112.327970	140.315138	183.370466	130.979336	454.664941
	118.189475	147.005172	190.006613	140.380249	477.392033
	123.139739	161.500243	206.280974	154.879961	522.661178
	127.523555	165.960265	212.759117	164.918224	543.637606
	127.991490	180.933196	227.453443	180.851974	589.238612
	135.109035	191.605391	240.409730	193.598974	625.614095
	139.689877	205.144744	257.474108	212.400799	675.019650
	144.270721	218.843383	271.694423	228.493886	719.031692
	148.161975	234.931320	289.864825	246.658361	771.454506
	152.816704	250.382110	305.033161	267.053561	822.468832
	152.890588	268.859344	325.257609	287.289424	881.406377
	155.870600	283.832275	342.163984	303.223173	929.219432
	156.978869	303.743088	363.336453	324.893074	991.972614
	157.348292	319.034592	376.924754	341.145499	1037.104844
	155.451921	336.556106	393.831128	359.469311	1089.856546
	152.422653	351.688324	409.789482	375.721736	1137.199542
	148.186603	368.731980	423.693790	389.902774	1182.328543
	143.655016	373.032715	434.122021	399.144349	1206.299084
	139.517480	385.457062	442.338203	408.863936	1236.659200
	135.503086	391.987808	450.080374	414.440748	1256.508931
	131.784230	401.067139	455.926504	420.814249	1277.807891
	131.710345	399.952134	457.190532	422.407624	1279.550289
	128.139259	404.571442	460.982616	425.275699	1290.829756
	124.248007	400.748566	458.770567	421.451599	1280.970731
	119.125346	404.252869	463.036661	422.566961	1289.856491
	112.869790	395.969971	455.610497	420.654911	1272.235379
	106.121671	394.536392	451.660409	415.237436	1261.434238
	97.969749	386.412781	446.288290	410.297974	1242.999045
	90.187249	386.572068	443.128220	405.517849	1235.218136
	82.823430	374.784866	435.544052	397.550973	1207.879892
	75.705893	368.254120	427.485874	389.265424	1185.005417
	69.992162	359.015503	420.533720	379.545836	1159.095059
	69.893649	359.174789	417.847660	378.430474	1155.452923
	63.884381	344.679718	402.995331	366.798836	1114.473885
	57.776600	336.715393	394.937153	355.007861	1086.660407
	52.210639	326.680344	385.930953	345.128936	1057.740233
	45.561041	317.919586	377.872775	336.524711	1032.317072
	39.182352	304.698807	363.494456	323.299699	991.492961
	31.670770	295.619476	351.644194	311.190049	958.453718
	26.055554	284.787994	339.635928	297.646361	922.070283
	20.464968	271.407928	329.523704	285.377374	886.309005
	14.332562	257.868576	316.409413	271.355674	845.633662
	9.677845	247.674239	304.243144	260.839398	812.756781
	9.062142	233.179168	289.074808	240.762874	763.016849
	5.564947	219.480529	275.012496	228.493886	722.986911
	2.708084	204.507598	259.212146	212.082124	675.801868
	-0.296548	192.242537	246.255859	198.219761	636.718158
	-2.192914	178.703185	232.509555	182.445349	593.658088
	-3.645974	167.871703	224.293373	169.857686	562.022762
	-2.439196	154.173064	207.703005	156.632674	518.508743
	-1.109277	142.385863	193.324687	144.204349	479.914898
	1.624446	131.395094	183.844477	129.385961	444.625532
	4.284284	124.864348	176.418312	121.897099	423.179759
	5.318666	112.440001	164.884057	108.990761	386.314819
	5.269409	105.590682	155.719854	98.793161	360.103696
	5.072384	95.555632	149.241710	89.392249	334.189591
	3.717837	89.024885	139.603497	80.628686	309.257068
	2.043124	79.626982	128.701255	74.892536	283.220773
	0.220642	74.051955	123.487140	64.376261	261.915355
	-0.444317	66.565489	117.008996	58.321436	241.895921
	-0.690598	62.424040	112.268891	52.744624	227.437555
	0.196014	55.893293	107.212779	46.689799	209.795871
	1.476677	54.141142	99.786615	40.953649	194.881405
	2.880481	44.424665	95.046509	35.217499	174.688673
	3.003621	45.061811	92.202447	33.942799	171.207057
	3.102134	38.371778	86.198314	30.118699	154.688791
	3.225274	38.849638	85.408296	25.497911	149.755845
	1.846099	30.407453	81.142202	20.877123	132.426779
	1.772215	30.407453	77.666125	19.283748	127.357326
	1.452049	25.150999	73.084023	15.778324	114.013345
	0.393039	23.876707	71.187981	13.388261	108.452949
	0.910230	17.186674	65.499855	7.333436	90.019965
	1.328908	19.257399	68.817928	7.970786	96.046113
	2.240149	15.434522	62.971799	7.652111	86.058433
	2.338662	13.363798	62.813796	5.262049	81.439642
	2.535687	11.611647	59.653726	2.234636	73.500008
	2.215521	13.363798	59.179715	3.031324	75.574837
	2.511059	11.293074	56.177649	0.481924	67.952646
	2.511059	7.948057	55.703638	0.163249	63.814944
	1.673702	5.718046	56.967666	-2.864164	59.821548
	1.476677	6.195905	53.333586	-2.864164	56.665327
	1.476677	6.036619	50.963533	-2.067477	54.932676
	1.846099	3.010175	50.489523	-6.050914	47.448784
	1.476677	2.213743	49.067491	-4.457539	46.823695
	1.156511	2.532316	48.435477	-5.254227	45.713567
	1.919983	3.488035	48.277474	-5.254227	46.511282
	1.919983	2.213743	52.069558	-3.660852	50.622449
	1.969240	-0.334841	46.223428	-7.644289	38.244298
	1.427421	0.461591	44.643393	-5.572902	39.532083
	2.018496	1.098737	44.485390	-5.254227	40.329901
	1.279652	-0.971987	44.169383	-7.325614	35.871782
	1.131883	-3.679858	41.799330	-9.397001	28.722471
	1.427421	0.780165	45.117404	-5.891577	40.005992
	1.846099	-0.494128	42.905355	-6.847602	35.563626
	1.698330	-0.812701	42.431344	-7.962964	33.655680
	2.018496	-0.175555	40.219295	-8.281639	31.762102
	1.870727	1.258024	40.851309	-6.528927	35.580407
	1.870727	-0.175555	41.325320	-5.572902	35.576864
	1.969240	0.939451	41.957334	-7.962964	34.933821
	2.166265	0.302305	39.903288	-7.166277	33.039317
	1.599818	4.125181	38.323253	-7.006939	35.441495
	1.895355	-1.449847	37.849243	-8.281639	28.117757
	1.846099	2.373029	39.271274	-7.006939	34.637365
	1.919983	1.417310	39.587281	-7.644289	33.360303
	1.698330	3.965895	38.323253	-7.962964	34.326184
	1.747587	-1.768420	39.587281	-4.776214	33.042648
	1.772215	3.647321	39.587281	-6.688264	36.546339
	2.067752	3.328748	39.587281	-6.050914	36.865116
	1.796843	2.373029	37.533236	-8.440977	31.465289
	2.043124	3.647321	40.851309	-5.413564	39.085067
	1.821471	2.532316	41.641327	-8.281639	35.892004
	2.190893	-0.175555	37.375232	-10.831039	26.368639
	1.747587	4.125181	38.323253	-7.325614	35.122820
	1.846099	0.780165	38.323253	-7.644289	31.459129
	1.525933	2.532316	38.323253	-9.715677	31.139893
	1.870727	1.098737	38.797264	-8.759652	31.136350
	1.846099	4.125181	40.535302	-7.166277	37.494207
	1.870727	2.532316	43.695372	-7.644289	38.583399
	1.722958	3.169462	40.851309	-9.078327	34.942445
	1.772215	1.735883	40.219295	-8.759652	33.195527
	1.796843	3.169462	41.009313	-7.644289	36.534486
	1.895355	2.213743	41.325320	-9.397001	34.142061
	1.550562	2.213743	41.641327	-9.397001	34.458068
	1.772215	3.328748	42.431344	-8.440977	37.319116
	1.673702	1.576597	42.747351	-8.759652	35.564297
	1.747587	0.143018	41.799330	-10.034352	31.907997
	1.747587	1.576597	41.009313	-10.353027	32.232883
	1.846099	3.965895	42.589348	-9.875014	36.680228
	1.649074	-0.175555	43.063358	-9.556339	33.331465
	1.624446	1.895170	46.223428	-7.484952	40.633647
	1.993868	0.780165	45.433411	-10.353027	35.860549
	1.969240	0.143018	41.799330	-11.627727	30.314622
	2.018496	0.620878	45.591414	-9.237664	36.974628
	1.772215	2.373029	47.171449	-7.962964	41.581515
	2.141637	-0.016268	46.223428	-9.875014	36.332146
	1.969240	-2.724139	42.905355	-13.858452	26.322765
	1.944612	-0.175555	48.277474	-8.918989	39.182930
	1.772215	-0.334841	47.013446	-7.803627	38.874978
	1.870727	2.691602	47.803463	-9.237664	41.257402
	1.624446	-0.812701	47.645460	-9.397001	37.435758
	1.969240	-0.175555	48.593481	-8.759652	39.658275
	1.772215	-0.812701	50.331519	-9.875014	39.643805
	1.747587	-0.494128	47.961467	-10.831039	36.636300
	1.624446	-2.724139	48.435477	-10.671702	35.039637
	1.673702	-0.812701	49.225495	-7.484952	40.927843
	1.944612	-1.768420	47.487456	-9.875014	35.844023
	1.846099	0.620878	47.803463	-10.353027	38.071315
	1.747587	-3.201998	48.119470	-9.556339	35.361133
	1.846099	-2.086993	51.753551	-9.556339	40.110219
	1.870727	-2.246279	48.435477	-10.034352	36.154847
	1.772215	-1.768420	47.171449	-12.583752	32.819278
	1.747587	-2.883425	48.751484	-8.918989	36.949070
	1.673702	-3.520571	46.223428	-9.556339	33.146518
	1.796843	-2.883425	48.435477	-11.468389	34.083663
	1.698330	-1.290560	47.803463	-10.512364	36.000539
	1.772215	-3.679858	49.699505	-9.556339	36.463309
	1.969240	-1.290560	48.909488	-8.600314	39.018614
	1.649074	-4.317003	45.907421	-9.875014	31.715404
	1.772215	-0.812701	47.961467	-9.078327	38.070440
	1.993868	-1.768420	49.699505	-9.078327	38.852759
	1.969240	-2.883425	48.909488	-7.166277	38.859786
	1.846099	-1.131274	47.803463	-9.078327	37.593863
	1.673702	-4.954149	45.749418	-10.353027	30.442242
	1.673702	-1.290560	49.383498	-7.962964	40.129974
	1.870727	-3.520571	46.855442	-9.556339	33.778532
	1.624446	-2.246279	44.959400	-10.831039	31.882082
	1.673702	-4.317003	47.329453	-10.034352	32.978098
	1.821471	-1.768420	49.541502	-8.600314	39.172768
	1.772215	-2.724139	47.803463	-8.122302	36.957023
	1.624446	-2.086993	45.591414	-10.671702	32.832720
	1.993868	-5.591295	46.065425	-10.353027	30.121103
	2.289405	-2.724139	47.487456	-8.600314	36.163004
	2.067752	-4.954149	48.435477	-10.193689	33.287639
	1.944612	-0.971987	46.697439	-9.237664	36.487788
	2.412546	-7.024874	44.485390	-12.743089	24.717426
	1.919983	-2.883425	46.855442	-8.440977	35.531041
	1.821471	-4.794863	44.643393	-8.759652	31.088879
	1.673702	-1.768420	46.539435	-9.715677	35.055339
	2.190893	-7.502734	44.485390	-12.424414	24.558242
	1.821471	-3.520571	48.909488	-9.397001	35.991915
	2.166265	-6.228441	45.117404	-10.671702	28.217261
	2.067752	-0.494128	48.119470	-9.397001	38.228341
	2.560315	-5.909868	44.643393	-12.424414	26.309111
	1.969240	-2.246279	47.013446	-8.122302	36.644865
	2.412546	-4.794863	44.643393	-9.715677	30.132854
	1.993868	-2.883425	47.803463	-9.875014	35.045024
	2.141637	-5.432009	45.591414	-11.149714	29.009691
	2.215521	-2.246279	47.013446	-8.440977	36.326190
	2.264777	-2.564852	43.537369	-11.149714	29.822803
	1.895355	-3.679858	45.275407	-9.715677	31.879873
	1.969240	-4.954149	44.643393	-11.946402	27.742842
	1.919983	-0.812701	49.699505	-7.484952	41.401853
	1.993868	-4.476290	43.853376	-8.918989	30.458097
	2.190893	-2.724139	44.959400	-9.556339	32.678923
	1.870727	-3.201998	45.433411	-10.034352	32.197061
	1.846099	0.302305	49.067491	-5.891577	43.478220
	2.166265	-3.201998	44.011379	-10.671702	30.137680
	1.821471	-1.290560	47.171449	-8.918989	36.961900
	2.215521	-3.998431	45.907421	-12.424414	29.484577
	1.919983	-1.131274	47.013446	-8.759652	37.122521
	2.067752	-3.520571	43.695372	-9.397001	30.777800
	1.673702	1.258024	48.593481	-8.281639	41.569866
	1.821471	-3.679858	43.853376	-11.468389	28.705129
	1.993868	0.939451	49.857509	-7.962964	42.833996
	2.437174	-3.679858	44.643393	-10.512364	30.451172
	1.895355	-0.494128	48.277474	-9.078327	38.705020
	2.117009	-4.476290	43.221362	-13.061764	25.683308
	1.969240	1.417310	45.433411	-7.962964	38.887757
	2.067752	-2.724139	44.327386	-11.627727	29.975521
	1.772215	-0.334841	45.907421	-9.397001	36.175579
	1.846099	-2.724139	45.907421	-11.149714	32.033569
	1.796843	1.576597	46.539435	-9.237664	38.878368
	1.846099	-1.768420	47.013446	-9.237664	36.007362
	1.919983	1.098737	47.487456	-9.078327	39.507867
	1.870727	-3.201998	43.221362	-13.221101	26.798262
	1.673702	1.895170	46.539435	-6.688264	41.746341
	2.117009	-2.405565	46.065425	-8.759652	34.900208
	1.944612	3.010175	50.805530	-6.688264	47.127441
	1.846099	-2.883425	44.327386	-11.309052	30.134910
	1.427421	-0.812701	42.905355	-10.512364	31.580290
	1.895355	-4.476290	41.799330	-12.743089	24.579951
	1.993868	0.939451	47.961467	-8.918989	39.981929
	1.747587	-1.290560	45.275407	-12.265077	31.719771
	1.772215	-0.175555	46.855442	-7.803627	38.876261
	1.747587	-1.131274	44.485390	-8.759652	34.594465
	1.624446	-0.175555	46.223428	-9.715677	36.332197
	1.599818	0.939451	45.749418	-9.715677	36.973192
	1.747587	-2.405565	45.275407	-10.353027	32.516815
	1.796843	-0.175555	46.381432	-8.918989	37.286888
	1.821471	-1.290560	46.697439	-10.671702	34.735177
	1.575190	1.895170	45.907421	-10.990377	36.812215
	1.846099	-1.609133	45.275407	-7.803627	35.862648
	1.698330	-0.334841	45.907421	-8.918989	36.653591
	1.698330	-0.016268	47.171449	-8.440977	38.714205
	1.772215	2.373029	47.961467	-8.600314	41.734182
	1.846099	-0.971987	47.329453	-8.440977	37.916489
	1.870727	0.143018	48.435477	-8.918989	39.659507
	1.575190	-0.812701	45.907421	-10.671702	34.423019
	1.895355	1.576597	45.749418	-9.078327	38.247688
	1.772215	-1.131274	46.697439	-6.847602	38.718564
	2.141637	1.258024	47.645460	-9.556339	39.347145
	2.018496	-1.449847	48.435477	-8.918989	38.066642
	2.018496	4.284467	49.383498	-6.688264	46.979702
	1.969240	-0.334841	48.277474	-8.281639	39.660994
	1.722958	-0.653414	45.749418	-9.875014	35.220990
	1.895355	0.461591	46.539435	-9.078327	37.922700
	1.698330	-0.175555	47.803463	-9.237664	38.390245
	1.575190	0.143018	47.961467	-6.369589	41.734896
	1.501305	-0.175555	47.013446	-9.078327	37.759565
	1.796843	1.895170	47.329453	-9.556339	39.668284
	1.501305	-0.653414	46.223428	-8.440977	37.129038
	1.870727	-0.494128	46.065425	-8.759652	36.811646
	1.993868	0.302305	47.961467	-8.600314	39.663458
	1.870727	2.850889	50.015512	-8.281639	44.584762
	1.796843	0.461591	47.645460	-8.759652	39.347400
	1.772215	-0.334841	45.749418	-8.281639	37.132938
	1.649074	-3.042711	45.433411	-11.627727	30.762973
	1.796843	2.373029	47.803463	-8.600314	41.576179
	1.747587	-0.016268	47.013446	-8.281639	38.715539
	1.846099	-0.334841	46.855442	-9.397001	37.123600
	1.698330	-0.812701	47.961467	-9.875014	37.273752
	1.722958	1.098737	48.593481	-8.759652	40.932567
	1.747587	-1.449847	44.959400	-10.831039	32.678515
	1.796843	1.098737	47.961467	-5.254227	43.805978
	1.796843	-0.653414	46.381432	-10.193689	35.534329
	1.870727	1.258024	49.067491	-8.440977	41.884539
	2.166265	-1.768420	46.065425	-9.875014	34.421991
	1.796843	0.939451	49.225495	-8.440977	41.723969
	2.117009	0.302305	47.013446	-9.875014	37.440737
	1.772215	-0.334841	46.697439	-10.193689	36.168909
	1.895355	-0.971987	46.539435	-8.440977	37.126472
	1.673702	0.143018	46.539435	-8.759652	37.922802
	1.993868	-0.175555	46.381432	-11.468389	34.737488
	1.772215	-0.175555	47.487456	-8.759652	38.552250
	2.166265	-1.609133	46.539435	-10.353027	34.577276
	1.747587	-1.131274	46.223428	-10.671702	34.420453
	2.018496	0.143018	45.117404	-11.149714	34.110708
	1.821471	1.417310	49.699505	-7.484952	43.631864
	1.919983	-2.405565	45.433411	-11.468389	31.559456
	1.821471	0.939451	49.383498	-4.616877	45.706073
	1.821471	-2.246279	44.169383	-12.583752	29.339352
	1.821471	1.576597	47.803463	-7.803627	41.576434
	2.092380	-1.449847	45.749418	-10.831039	33.468532
	1.427421	1.258024	48.593481	-8.440977	41.410528
	1.870727	-2.564852	46.381432	-11.787064	32.029516
	1.649074	0.461591	48.277474	-8.918989	39.820076
	1.969240	0.620878	47.013446	-9.078327	38.555997
	1.895355	2.691602	48.119470	-7.325614	43.485459
	1.796843	-3.520571	44.643393	-13.380439	27.742383
	1.772215	1.258024	47.487456	-8.600314	40.145166
	2.092380	-1.927706	45.433411	-11.309052	32.196653
	1.796843	3.806608	49.541502	-8.440977	44.907133
	1.969240	-2.405565	46.539435	-10.831039	33.302831
	1.821471	-0.175555	45.907421	-10.353027	35.378840
	1.969240	-2.405565	44.959400	-10.990377	31.563458
	1.993868	2.691602	47.645460	-8.122302	42.214761
	2.092380	-1.290560	47.013446	-9.078327	36.644559
	1.919983	1.895170	48.909488	-8.281639	42.523019
	1.969240	-3.201998	45.275407	-12.902427	29.170983
	2.067752	0.620878	45.591414	-11.787064	34.425228
	2.166265	-3.520571	44.643393	-12.105739	29.017083
	1.944612	2.532316	49.699505	-8.281639	43.950182
	2.215521	-3.361285	44.643393	-9.397001	31.885107
	2.166265	5.399473	52.543568	-6.050914	51.892127
	1.821471	-1.609133	46.697439	-11.309052	33.779254
	1.919983	0.461591	47.645460	-10.034352	38.072700
	2.092380	1.417310	48.435477	-8.440977	41.411811
	1.673702	-1.449847	45.591414	-10.990377	33.151191
	1.821471	0.143018	47.487456	-9.397001	38.233473
	1.575190	0.780165	48.751484	-9.556339	39.975310
	2.215521	1.895170	47.329453	-9.556339	39.668284
	1.772215	-0.334841	47.171449	-7.484952	39.351657
	1.821471	-0.016268	45.907421	-10.831039	35.060114
	1.673702	1.417310	48.277474	-8.440977	41.253808
	1.698330	0.620878	46.381432	-10.671702	36.330608
	1.722958	-2.246279	47.645460	-10.990377	34.408804
	1.796843	0.143018	47.803463	-10.034352	37.912130
	1.673702	-0.175555	46.855442	-10.353027	36.326861
	1.796843	2.213743	47.013446	-9.556339	39.670850
	1.698330	-0.653414	46.697439	-8.600314	37.443711
	2.018496	0.620878	46.697439	-10.193689	37.124628
	1.575190	0.620878	48.593481	-9.237664	39.976695
	1.772215	2.213743	50.489523	-8.122302	44.580964
	1.747587	1.258024	49.383498	-8.281639	42.359883
	1.747587	0.939451	46.539435	-10.353027	37.125860
	1.796843	-0.175555	48.277474	-9.715677	38.386243
	1.993868	1.576597	47.013446	-8.759652	39.830391
	1.944612	0.461591	47.961467	-10.831039	37.592019
	1.575190	-0.971987	46.065425	-11.627727	33.465711
	2.043124	2.532316	52.069558	-7.006939	47.594935
	1.796843	0.143018	47.961467	-10.034352	38.070134
	2.215521	0.620878	47.803463	-9.078327	39.346015
	1.895355	1.417310	48.593481	-9.715677	40.295115
	2.018496	0.780165	46.855442	-10.353027	37.282580
	2.067752	-0.494128	49.699505	-7.325614	41.879764
	1.870727	1.735883	50.173516	-8.122302	43.787098
	1.673702	2.213743	49.225495	-8.759652	42.679586
	1.919983	5.080900	51.121537	-6.688264	49.514173
	1.969240	0.780165	48.593481	-8.759652	40.613993
	1.969240	0.939451	49.383498	-8.600314	41.722635
	1.624446	-0.016268	48.593481	-10.831039	37.746174
	1.796843	3.965895	50.805530	-8.281639	46.489785
	1.575190	1.576597	49.067491	-7.484952	43.159137
	2.067752	-0.016268	46.539435	-9.875014	36.648153
	1.698330	1.735883	48.751484	-8.918989	41.568379
	2.117009	0.939451	49.699505	-8.440977	42.197980
	1.796843	2.373029	51.279540	-8.281639	45.370931
	1.993868	1.895170	49.225495	-8.281639	42.839026
	1.969240	3.488035	47.803463	-9.875014	41.416484
	2.609571	-0.971987	48.277474	-11.309052	35.996435
	1.969240	1.895170	49.225495	-6.688264	44.432401
	2.412546	0.780165	48.119470	-9.397001	39.502633
	2.314034	4.125181	49.541502	-9.556339	44.110344
	2.831224	-2.564852	47.961467	-11.468389	33.928226
	2.831224	2.532316	49.857509	-8.281639	44.108186
	3.003621	1.735883	47.961467	-8.440977	41.256374
	3.028249	3.328748	48.435477	-10.831039	40.933187
	3.767093	1.417310	49.699505	-7.006939	44.109877
	4.185772	4.443754	50.173516	-4.776214	49.841056
	5.343294	3.169462	50.805530	-8.281639	45.693353
	6.205278	8.107344	53.333586	-5.413564	56.027365
	6.550072	3.806608	52.069558	-4.616877	51.259289
	6.993379	6.355192	50.963533	-4.616877	52.701849
	8.471067	7.470198	54.123603	-2.067477	59.526324
	9.530076	10.337354	53.491589	-2.067477	61.761467
	10.539830	4.921613	53.965600	-5.572902	53.314312
	10.539830	13.363798	57.757684	5.421386	76.542868
	11.943633	10.496641	52.701572	-1.430127	61.768086
	13.002643	16.549528	60.127736	5.580724	82.257988
	13.839999	17.345961	60.759750	6.536749	84.642459
	14.578844	22.920988	65.973866	11.157536	100.052390
	16.475210	25.310286	66.131869	11.316874	102.759028
	16.844632	27.540297	69.133936	14.662961	111.337193
	18.691742	29.133161	72.926020	15.300311	117.359492
	19.800008	34.708189	73.874041	22.151823	130.734053
	21.844143	38.212492	76.244093	20.558449	135.015033
	23.001666	37.097487	79.720170	24.701224	141.518880
	23.174062	42.513227	84.302272	28.047311	154.862810
	24.824148	46.495390	88.252359	32.349424	167.097172
	26.326464	52.388990	89.674391	35.058161	177.121542
	28.272087	52.866850	94.730503	38.085574	185.682926
	29.872916	55.096861	95.678523	40.634974	191.410358
	32.335729	56.849013	98.680590	45.415099	200.944701
	33.911930	63.539046	104.368716	46.052449	213.960210
	35.611272	62.583327	108.002797	49.079861	219.665984
	37.113588	67.361922	110.214846	52.744624	230.321391
	38.739046	67.043349	111.320870	54.816011	233.180230
	40.044337	74.211241	117.167000	58.162099	249.540339
	40.610784	71.503371	117.483007	58.799449	247.785826
	41.448141	78.671263	123.487140	66.925661	269.084064
	42.778061	76.441252	124.751168	66.925661	268.118081
	43.516905	82.334852	131.387315	71.227774	284.949941
	45.216247	81.697707	131.703322	73.617836	287.018864
	45.955091	88.547026	137.075441	80.788023	306.410490
	46.989473	89.024885	137.865458	81.744049	308.634392
	47.309639	89.343458	140.867525	83.815436	314.026419
	48.319393	92.210616	147.977682	88.595561	328.783859
	49.230634	95.237059	147.977682	92.897673	336.112414
	49.427659	96.192778	146.081640	97.040448	339.314867
	49.255262	100.334227	154.455826	101.023886	355.813939
	49.575428	101.130659	155.877857	103.254611	360.263128
	49.600056	103.679243	160.459959	108.034736	372.173938
	49.846337	107.183547	161.881990	111.062149	380.127685
	49.575428	110.050703	164.410046	115.682936	390.143686
	49.969478	109.732131	165.516071	115.364261	390.612462
	49.378403	117.377882	171.204197	124.127824	412.709902
	49.624684	117.218596	172.468225	127.633249	417.320069
	48.762699	122.315764	177.208330	129.863974	429.388067
	48.294764	125.501494	182.264442	134.803436	442.569372
	46.915588	130.917235	183.370466	137.830849	452.118550
	46.620051	128.527938	183.212463	138.946211	450.686611
	45.388644	134.899398	188.268575	143.407661	466.575633
	44.206493	133.943679	187.320554	142.770311	464.034543
	42.162357	139.518706	189.690606	145.001036	474.210348
	40.413759	133.943679	188.268575	145.160374	467.372627
	38.098714	139.040847	192.218662	145.160374	476.419882
	36.522513	138.722273	191.112638	145.797724	475.632635
	34.576890	140.792998	189.532603	144.363686	474.689287
	32.902177	135.536543	188.110571	142.451636	466.098751
	30.611760	136.810835	187.004547	139.902236	463.717618
	29.158700	133.625106	184.634494	136.715486	454.975086
	28.099690	136.492263	184.476491	138.308861	459.277614
	27.582499	128.687224	182.738452	133.688074	445.113750
	25.538364	127.572219	178.156351	128.111261	433.839830
	23.937535	121.519332	173.574249	123.490474	418.584054
	22.262821	122.952910	172.942235	122.215774	418.110919
	22.459847	116.422164	168.676141	117.116974	402.215278
	19.282817	115.307158	167.412113	113.930224	396.649494
	17.731245	110.369276	160.143952	107.397386	377.910614
	16.155044	104.634963	155.245843	103.732624	363.613429
	14.972894	100.652800	151.611763	102.457924	354.722486
	13.544462	97.626356	148.925703	94.491049	341.043108
	12.460824	93.484908	144.817612	89.870261	328.172781
	11.229417	87.272734	139.445493	85.408811	312.127038
	11.155533	82.812712	133.441360	80.628686	296.882758
	9.702473	81.219847	132.335336	77.441936	290.997119
	8.963629	76.919111	126.331203	71.865123	275.115437
	8.027760	69.591933	121.275091	66.925661	257.792684
	7.362801	66.087630	117.483007	64.854274	248.424910
	6.525444	61.786894	115.112954	57.843424	234.743272
	5.835856	61.468321	111.162867	57.524749	230.155936
	5.392550	53.185423	103.420695	50.991911	207.598029
	4.924616	50.636839	101.524653	48.123836	200.285328
	4.505937	47.610396	98.206580	44.618411	190.435386
	4.382797	44.902525	95.678523	41.112986	181.694035
	4.136515	40.920362	92.202447	39.678949	172.801758
	4.062631	35.982481	87.778349	34.739486	158.500315
	3.840978	33.115324	84.460275	31.552736	149.128335
	3.520812	32.956038	81.774216	30.118699	144.848951
	3.446928	28.814589	79.088156	27.250623	135.153368
	3.545440	28.336729	77.982132	26.613274	132.932134
	3.397671	23.239561	73.084023	20.399111	116.722695
	3.225274	20.372404	70.871974	18.646399	109.890777
	3.446928	23.558134	74.190048	24.382548	122.130730
	3.299159	16.390241	66.447876	15.937661	98.775779
	2.855852	17.027387	64.235827	13.388261	94.651476
	3.028249	13.204512	64.393830	14.025611	91.623953
	3.052878	12.089506	62.813796	12.432236	87.335538
	3.299159	10.974500	62.655792	11.635549	85.265841
	3.126762	9.859495	59.811729	9.245486	78.916710
	2.855852	6.673765	57.283673	8.289461	72.246899
	3.052878	7.470198	58.231694	8.926811	74.628703
	3.397671	4.603041	57.915687	9.404824	71.923551
	3.643953	7.151625	58.389698	6.855424	72.396746
	3.545440	4.603041	57.757684	7.333436	69.694160
	3.545440	4.125181	55.229628	6.536749	65.891557
	3.471556	2.691602	55.229628	5.421386	63.342616
	3.668581	3.010175	56.335652	6.218074	65.563901
	3.619325	1.098737	54.755617	3.668674	59.523028
	3.840978	1.735883	56.177649	6.377411	64.290943
	3.742465	4.125181	58.547701	7.970786	70.643668
	3.742465	2.532316	57.125670	5.421386	65.079372
	3.791721	1.895170	55.229628	5.740061	62.864859
	3.865606	1.258024	55.071624	4.784036	61.113684
	3.767093	6.355192	57.757684	7.014761	71.127637
	3.964118	4.284467	58.231694	7.174099	69.690260
	3.570068	4.284467	57.915687	5.421386	67.621541
	3.570068	3.647321	57.441677	6.218074	67.307072
	3.520812	7.948057	57.599680	4.306024	69.853761
	3.200646	5.080900	55.703638	5.421386	66.205924
	3.545440	6.195905	56.809663	5.421386	68.426954
	3.471556	7.629484	57.125670	5.421386	70.176540
	3.151390	8.585203	55.703638	3.031324	67.320165
	3.126762	5.080900	55.545635	2.871986	63.498521
	3.077506	8.266630	56.493656	3.668674	68.428959
	3.077506	4.443754	53.017579	3.828011	61.289344
	2.781968	8.266630	52.701572	1.119274	62.087475
	2.806596	5.399473	54.913621	0.322586	60.635680
	2.683456	9.381636	55.545635	2.712649	67.639919
	2.905109	6.036619	51.753551	-1.270789	56.519381
	2.708084	7.470198	54.281607	1.437949	63.189753
	2.855852	5.877333	50.331519	-1.589464	54.619388
	2.584943	7.788771	52.227561	-1.111452	58.904880
	3.003621	8.903776	53.333586	0.959936	63.197298
	3.003621	6.833052	53.965600	-0.155427	60.643225
	3.545440	4.762327	51.279540	-3.342177	52.699691
	3.323787	8.107344	50.963533	-0.952114	58.118763
	3.249903	6.833052	49.857509	-3.342177	53.348384
	3.249903	5.399473	50.963533	-3.182839	53.180167
	3.545440	4.921613	48.909488	-4.776214	49.054887
	3.323787	5.558759	51.279540	-4.616877	52.221423
	3.274531	5.558759	50.647526	-2.704827	53.501459
	3.126762	5.399473	51.279540	-3.501514	53.177499
	3.323787	3.488035	47.645460	-5.891577	45.241918
	3.052878	6.036619	51.279540	-3.342177	53.973983
	3.151390	6.355192	49.857509	-4.776214	51.436487
	3.496184	6.355192	50.489523	-4.138864	52.705851
	3.570068	3.647321	49.383498	-7.166277	45.864543
	3.767093	5.558759	52.859575	-2.704827	55.713508
	4.013375	4.443754	48.751484	-4.935552	48.259687
	4.185772	4.762327	48.593481	-5.891577	47.464231
	4.185772	5.240187	50.489523	-4.616877	51.112833
	4.235028	5.718046	50.647526	-4.138864	52.226708
	4.333540	3.965895	50.331519	-5.732239	48.565175
	4.284284	6.514479	52.385565	-3.660852	55.239192
	4.850731	5.399473	51.121537	-4.776214	51.744796
	4.875359	9.063062	52.701572	-2.226814	59.537820
	5.047756	3.965895	50.805530	-1.270789	53.500635
	4.875359	7.629484	52.859575	-2.386151	58.102908
	5.367922	4.284467	50.805530	-4.776214	50.313783
	5.761972	9.540922	53.807596	-1.430127	61.918392
	6.032881	4.443754	52.227561	-3.023502	53.647814
	5.811228	9.859495	54.123603	0.800599	64.783697
	6.032881	6.514479	53.807596	-1.748802	58.573273
	6.229906	12.885939	58.073691	2.234636	73.194265
	6.623957	7.788771	56.651659	1.756624	66.197053
	6.574700	10.178068	57.599680	0.641261	68.419009
	7.436685	9.700209	55.229628	1.756624	66.686460
	6.747097	11.452360	59.653726	4.624699	75.730784
	7.584454	10.178068	57.441677	3.190661	70.810406
	7.535197	11.770933	58.705705	4.784036	75.260674
	7.756851	12.408079	60.917754	4.465361	77.791194
	7.830735	13.045225	62.971799	7.014761	83.031785
	7.904619	12.089506	61.233761	8.926811	82.250078
	8.077016	15.753096	62.655792	8.767474	87.176361
	8.200157	14.956663	63.287806	7.970786	86.215255
	8.052388	13.841658	62.971799	8.767474	85.580930
	8.569579	15.115949	64.393830	9.882836	89.392616
	9.259167	16.868101	66.447876	10.360849	93.676826
	9.406936	17.505247	67.237894	9.245486	93.988627
	9.456192	18.938826	69.291939	16.415674	104.646438
	9.998011	16.708815	65.815862	11.476211	94.000888
	9.702473	18.779539	68.659925	12.113561	99.553025
	10.465945	21.805983	69.291939	13.388261	104.486183
	10.121151	17.823820	70.871974	12.591574	101.287368
	10.416689	20.213117	69.923953	15.618986	105.756057
	9.776358	22.283842	73.084023	17.053024	112.420888
	10.490573	24.832426	72.926020	16.415674	114.174119
	10.859995	24.513853	74.032044	18.168386	116.714283
	11.475699	20.850264	71.661992	17.690373	110.202629
	11.229417	26.266004	75.454076	18.487061	120.207141
	11.549583	22.443129	72.768016	16.893686	112.104831
	11.746608	25.628858	75.454076	19.602424	120.685358
	12.386940	23.558134	71.977998	17.371699	112.907831
	12.411568	30.885313	77.824128	22.151823	130.861265
	12.510080	24.035993	74.664058	17.053024	115.753075
	12.608593	29.451735	80.036177	22.629836	132.117748
	12.904130	27.062437	75.928086	22.151823	125.142347
	12.707105	32.956038	78.456142	22.948511	134.360691
	13.322809	25.628858	77.192114	21.195799	124.016771
	13.396693	32.478178	80.984198	26.135261	139.597637
	13.593718	30.726026	79.720170	25.179236	135.625433
	13.544462	33.593183	81.142202	24.382548	139.117933
	13.839999	28.814589	80.984198	23.745199	133.543985
	13.667603	30.566740	80.510188	25.816586	136.893514
	14.012396	30.407453	79.562167	25.019899	134.989519
	13.963140	35.504621	82.880240	27.409961	145.794823
	14.283306	30.885313	82.090223	27.091286	140.066822
	14.258678	34.389616	82.880240	27.887974	145.157829
	14.529587	30.566740	81.932219	26.772611	139.271570
	14.381818	37.734632	88.726370	29.162674	155.623676
	14.431075	31.841032	83.196247	28.365986	143.403265
	14.480331	37.097487	85.566300	34.420811	157.084597
	15.071406	34.708189	85.724303	31.234061	151.666553
	14.603472	36.460340	86.198314	31.393399	154.052053
	14.899009	33.593183	87.462342	30.118699	151.174224
	14.628100	39.964643	89.516387	35.217499	164.698529
	14.948266	36.938200	84.460275	31.712074	153.110548
	14.874381	35.504621	86.514321	31.871411	153.890353
	14.874381	36.141768	86.672324	32.030749	154.844840
	14.504959	39.964643	90.464408	36.492199	166.921250
	14.849753	37.734632	86.988331	35.217499	159.940462
	14.652728	38.690351	89.200380	35.376836	163.267568
	14.849753	36.778913	89.358384	34.261474	160.398771
	14.431075	39.486784	88.726370	37.288886	165.502040
	14.849753	39.008924	87.778349	35.376836	162.164109
	14.332562	38.690351	90.306405	36.173524	165.170280
	14.825125	38.371778	90.780415	35.058161	164.210355
	14.160165	42.672514	92.676457	39.997624	175.346595
	14.406447	36.778913	86.356317	36.332861	159.468092
	13.889256	39.646071	90.306405	36.014186	165.966661
	14.184793	39.805357	90.464408	37.766899	168.036664
	13.790743	40.761076	90.464408	38.085574	169.311058
	13.642974	36.938200	89.042377	35.695511	161.676087
	13.372065	42.353941	94.098489	39.041599	175.494028
	13.248924	38.371778	90.148401	36.970211	165.490391
	13.076527	42.353941	90.148401	39.519611	172.021953
	13.027271	36.301054	88.252359	33.783461	158.336874
	12.534708	41.079649	91.570433	38.722924	171.373005
	12.460824	38.849638	89.516387	37.607561	165.973586
	12.165286	40.442503	90.148401	36.651536	167.242440
	12.386940	36.141768	90.306405	35.217499	161.665671
	11.943633	39.327497	89.832394	35.695511	164.855403
	11.869749	36.141768	87.146335	34.261474	157.549576
	11.451071	40.283216	88.410363	38.085574	166.779153
	11.549583	33.752470	86.672324	33.464786	153.889580
	11.327930	38.690351	92.518454	35.376836	166.585641
	11.254046	31.841032	84.934286	30.756049	147.531366
	10.589086	37.097487	85.092289	33.305449	155.495224
	10.687598	31.841032	83.354251	29.959361	145.154644
	10.490573	34.708189	85.724303	31.393399	151.825891
	10.490573	33.115324	84.460275	28.843999	146.419597
	10.219664	33.752470	85.724303	32.030749	151.507521
	9.948754	31.681745	82.406230	29.959361	144.047336
	9.603961	34.708189	85.092289	30.437373	150.237852
	9.628589	32.637465	80.826194	27.728636	141.192295
	9.209910	31.681745	82.406230	29.322011	143.409986
	9.480820	28.814589	80.668191	26.294599	135.777378
	9.259167	34.071043	85.408296	29.162674	148.642013
	9.259167	30.088881	79.088156	23.745199	132.922235
	8.840489	29.929594	79.720170	28.525324	138.175088
	9.062142	27.858870	78.930153	25.179236	131.968258
	8.741976	30.248167	80.194181	25.816586	136.258934
	8.840489	30.248167	78.772149	24.860561	133.880877
	8.446438	29.133161	80.668191	26.294599	136.095951
	8.495695	25.628858	78.456142	22.629836	126.714837
	8.495695	27.062437	77.824128	22.151823	127.038388
	8.569579	26.106718	74.822062	21.514474	122.443253
	8.052388	24.832426	76.086090	23.107848	124.026364
	8.446438	23.876707	74.664058	18.646399	117.187164
	7.879991	24.832426	75.770083	22.151823	122.754332
	8.421810	26.584578	75.612079	21.514474	123.711130
	7.830735	23.717420	76.560100	20.080436	120.357957
	8.027760	22.761702	73.874041	19.602424	116.238166
	7.609082	23.398847	72.768016	18.168386	114.335250
	8.200157	21.646696	73.084023	18.487061	113.217780
	7.929248	22.920988	73.400030	21.992486	118.313504
	8.027760	21.168837	75.138069	18.487061	114.793966
	7.830735	24.513853	73.874041	18.168386	116.556280
	8.200157	16.868101	67.711904	14.503624	99.083629
	8.249413	22.920988	73.084023	19.124411	115.129422
	8.175529	21.009550	72.768016	18.487061	112.264627
	8.077016	24.035993	73.874041	17.690373	115.600408
	7.953876	18.142393	71.029978	16.256336	105.428707
	7.732223	21.168837	71.029978	18.805736	111.004550
	7.781479	19.257399	72.294006	17.212361	108.763765
	7.953876	22.124555	71.503988	17.212361	110.840905
	8.200157	18.779539	70.081957	16.575011	105.436507
	7.806107	21.328123	73.242027	18.487061	113.057211
	8.101645	20.213117	73.084023	17.212361	110.509501
	8.052388	19.098112	71.187981	15.778324	106.064417
	7.978504	18.779539	70.239960	15.937661	104.957160
	7.978504	20.850264	72.294006	20.717786	113.862055
	7.978504	16.708815	68.185914	14.184949	99.079678
	7.879991	19.735258	71.503988	16.893686	108.132932
	8.126273	15.912382	69.291939	14.184949	99.389270
	8.027760	18.620252	71.187981	15.300311	105.108545
	8.003132	20.213117	70.871974	15.300311	106.385403
	7.879991	19.098112	70.397964	15.140974	104.637049
	8.175529	15.912382	68.185914	14.344286	98.442582
	7.978504	20.213117	71.187981	17.690373	109.091472
	8.150901	19.098112	69.291939	13.866274	102.256325
	7.658338	20.053831	72.768016	17.690373	110.512221
	8.372554	16.230955	69.607946	13.228924	99.067825
	7.953876	21.328123	72.768016	17.531036	111.627175
	8.421810	19.416685	68.975932	15.300311	103.692928
	8.003132	20.690977	72.768016	16.893686	110.352679
	8.249413	19.098112	71.661992	15.937661	106.697765
	8.274041	25.469572	75.296072	21.992486	122.758130
	8.397182	19.098112	70.871974	16.096999	106.067085
	8.397182	21.009550	71.029978	17.212361	109.251889
	8.347926	19.575972	73.084023	16.256336	108.916331
	8.224785	23.717420	73.716037	18.327724	115.761181
	8.495695	16.071669	70.081957	14.025611	100.179236
	8.298670	22.124555	73.716037	17.212361	113.052954
	8.446438	21.328123	72.136002	17.849711	111.313836
	8.323298	21.965269	71.977998	17.212361	111.155628
	8.446438	19.257399	71.661992	16.096999	107.016389
	8.298670	21.009550	71.029978	17.371699	109.411226
	8.914373	21.805983	74.032044	18.327724	114.165750
	8.840489	22.443129	72.452009	15.778324	110.673461
	9.037514	19.894544	72.926020	17.212361	110.032925
	8.766604	21.168837	71.187981	16.575011	108.931829
	8.446438	22.443129	74.664058	19.761761	116.868948
	8.939001	24.832426	74.822062	21.514474	121.168961
	8.840489	21.487409	74.032044	18.327724	113.847177
	8.988257	20.053831	71.187981	15.778324	107.020136
	8.914373	21.328123	74.980065	18.965074	115.273262
	8.939001	23.398847	73.716037	18.327724	115.442608
	8.963629	21.487409	72.610012	18.487061	112.584483
	8.889745	23.398847	75.138069	18.327724	116.864640
	8.840489	21.805983	74.822062	22.151823	118.779867
	9.283795	23.558134	75.138069	19.761761	118.457964
	9.160654	22.602415	74.980065	18.965074	116.547554
	9.431564	20.690977	73.242027	17.212361	111.145365
	9.136026	24.195280	74.980065	19.761761	118.937106
	9.480820	22.443129	74.980065	20.399111	117.822305
	9.431564	23.080275	75.612079	19.602424	118.294777
	9.357679	21.965269	74.664058	18.168386	114.797713
	9.727101	26.903150	77.666125	21.673811	126.243086
	9.850242	21.965269	74.822062	22.470499	119.257829
	9.677845	24.195280	75.138069	21.195799	120.529147
	9.505448	23.558134	75.612079	20.877123	120.047336
	9.800986	24.673140	76.244093	20.558449	121.475681
	9.850242	20.372404	75.454076	19.124411	114.950891
	10.047267	23.239561	75.928086	20.239773	119.407421
	9.702473	24.513853	76.402096	21.833149	122.749098
	9.702473	25.947432	77.824128	21.673811	125.445370
	9.874870	22.761702	75.612079	22.151823	120.525604
	9.850242	24.195280	76.244093	19.283748	119.723121
	10.219664	23.239561	77.508121	20.399111	121.146793
	9.653217	23.398847	77.508121	21.036461	121.943430
	9.998011	22.283842	75.454076	20.399111	118.137029
	9.825614	24.832426	75.928086	24.063874	124.824386
	10.195036	22.443129	74.822062	18.805736	116.070926
	9.973383	27.221723	79.562167	26.135261	132.919151
	9.948754	23.239561	76.560100	22.311161	122.110822
	9.505448	24.513853	77.350118	21.833149	123.697119
	9.973383	24.832426	77.982132	21.673811	124.488369
	9.800986	25.150999	78.614146	23.267186	127.032331
	9.874870	24.673140	77.666125	23.107848	125.447113
	9.874870	25.628858	78.456142	22.629836	126.714837
	9.948754	26.106718	77.192114	21.833149	125.131980
	9.677845	25.628858	82.248226	26.135261	134.012345
	10.121151	24.991712	78.614146	23.745199	127.351057
	9.825614	26.425291	78.614146	22.629836	127.669273
	9.751729	28.655302	77.824128	22.789174	129.268604
	9.677845	25.628858	78.614146	23.904536	128.147540
	10.195036	24.832426	78.930153	22.629836	126.392415
	9.924126	23.558134	77.350118	21.355136	122.263388
	10.047267	24.991712	77.350118	22.629836	124.971666
	9.579332	25.947432	78.614146	23.904536	128.466113
	9.850242	20.531690	72.926020	21.195799	114.653509
	9.948754	29.770307	79.562167	24.541886	133.874360
	10.047267	22.124555	77.034110	21.514474	120.673139
	9.800986	24.991712	79.246160	22.789174	127.027046
	9.874870	24.354567	78.140135	22.789174	125.283875
	9.677845	28.177443	77.350118	24.223211	129.750771
	9.924126	24.513853	78.930153	22.629836	126.073842
	9.406936	26.425291	78.930153	25.816586	131.172030
	9.874870	26.106718	79.404163	26.135261	131.646142
	9.554704	25.788145	76.560100	20.558449	122.906694
	9.850242	23.558134	80.194181	24.063874	127.816188
	9.505448	26.584578	79.404163	24.541886	130.530627
	9.603961	24.195280	77.350118	23.904536	125.449934
	9.308423	26.903150	77.666125	22.311161	126.880436
	9.333051	23.876707	78.614146	23.267186	125.758038
	9.431564	26.425291	79.246160	25.975924	131.647374
	9.530076	23.558134	77.666125	21.036461	122.260720
	9.308423	26.106718	80.668191	22.789174	129.564083
	9.111398	23.398847	77.982132	23.585861	124.966840
	8.889745	24.673140	77.192114	22.629836	124.495090
	9.209910	26.266004	80.826194	25.657249	132.749448
	9.259167	25.788145	78.140135	22.470499	126.398779
	9.431564	24.832426	82.248226	23.267186	130.347838
	8.914373	24.195280	78.298139	24.860561	127.353980
	9.062142	27.381010	77.034110	24.223211	128.638331
	8.963629	25.150999	80.036177	24.223211	129.410387
	9.185282	24.195280	78.456142	23.267186	125.918608
	9.308423	23.876707	78.930153	22.470499	125.277358
	9.259167	27.381010	79.404163	24.223211	131.008384
	9.012885	23.398847	76.718104	22.629836	122.746787
	8.766604	25.788145	80.194181	24.063874	130.046199
	8.939001	24.832426	77.192114	24.382548	126.407089
	8.668092	23.080275	75.454076	22.948511	121.482861
	8.618835	21.965269	77.034110	20.877123	119.876503
	8.988257	22.283842	78.298139	21.195799	121.777779
	8.815860	23.876707	77.824128	22.470499	124.171334
	8.840489	23.080275	75.612079	21.833149	120.525502
	8.963629	24.832426	78.456142	22.948511	126.237079
	8.865117	23.876707	77.192114	21.036461	122.105282
	9.160654	25.469572	79.562167	24.382548	129.414287
	8.815860	22.124555	77.034110	22.470499	121.629165
	8.865117	22.124555	77.350118	20.399111	119.873784
	8.815860	22.283842	76.086090	21.195799	119.565730
	9.037514	25.788145	77.508121	23.904536	127.200802
	8.717348	22.920988	77.350118	21.833149	122.104254
	8.840489	21.965269	76.086090	19.921099	117.972457
	8.865117	24.035993	78.456142	22.470499	124.962634
	8.815860	24.832426	77.034110	22.789174	124.655710
	8.815860	22.124555	78.456142	19.443086	120.023784
	8.717348	22.283842	76.244093	20.717786	119.245721
	8.914373	20.213117	73.716037	18.805736	112.734890
	9.111398	24.035993	75.296072	20.558449	119.890514
	8.544951	22.283842	77.350118	21.992486	121.626446
	8.914373	23.080275	78.614146	21.036461	122.730881
	8.692720	22.443129	76.560100	21.992486	120.995715
	9.136026	24.673140	77.982132	19.761761	122.417032
	8.741976	23.876707	78.930153	23.904536	126.711396
	8.963629	21.646696	74.664058	20.717786	117.028540
	8.594207	24.991712	78.614146	23.585861	127.191719
	8.815860	22.602415	74.506055	19.602424	116.710893
	8.815860	25.310286	81.300205	24.382548	130.993039
	8.766604	20.531690	74.664058	19.443086	114.638835
	8.815860	22.124555	75.296072	19.761761	117.182389
	8.865117	22.761702	77.192114	21.355136	121.308952
	8.889745	23.876707	77.508121	21.833149	123.217976
	9.136026	22.602415	74.032044	20.717786	117.352245
	8.791232	20.850264	74.190048	20.239773	115.280085
	8.914373	21.487409	75.770083	20.080436	117.337928
	8.766604	22.602415	78.140135	21.833149	122.575698
	9.136026	21.965269	75.928086	21.036461	118.929816
	9.012885	22.920988	76.402096	22.629836	121.952920
	9.357679	20.372404	74.506055	19.921099	114.799557
	8.791232	22.761702	75.770083	19.443086	117.974870
	8.988257	21.328123	77.666125	20.717786	119.712034
	8.939001	22.443129	76.718104	22.948511	122.109743
	8.840489	22.443129	74.506055	20.558449	117.507632
	8.791232	24.035993	74.506055	19.761761	118.303809
	8.692720	20.690977	76.718104	21.514474	118.923554
	8.840489	21.487409	76.876107	20.717786	119.081303
	8.668092	21.646696	77.508121	22.311161	121.465978
	8.815860	22.920988	73.716037	19.443086	116.080111
	8.741976	21.009550	75.928086	20.239773	117.177410
	8.569579	22.443129	76.244093	20.717786	119.405007
	8.865117	23.717420	79.720170	23.107848	126.545439
	8.692720	21.646696	77.192114	21.195799	120.034608
	8.889745	21.168837	74.032044	20.239773	115.440654
	8.544951	22.124555	75.770083	21.673811	119.568449
	8.865117	23.558134	76.560100	21.514474	121.632708
	9.062142	22.124555	77.508121	21.833149	121.465825
	9.012885	23.876707	76.560100	21.514474	121.951280
	8.939001	23.080275	75.296072	20.399111	118.775458
	8.692720	21.965269	76.876107	21.833149	120.674524
	8.865117	22.920988	76.876107	23.904536	123.701631
	8.840489	22.283842	77.982132	21.514474	121.780447
	8.815860	23.876707	76.086090	20.558449	120.521245
	9.136026	22.443129	76.876107	22.151823	121.471059
	9.037514	18.620252	72.768016	18.327724	109.715992
	8.865117	22.283842	76.244093	21.833149	120.361083
	9.185282	24.673140	78.456142	22.470499	125.599780
	8.889745	22.124555	77.034110	20.399111	119.557777
	9.160654	20.372404	76.086090	20.717786	117.176280
	8.717348	22.283842	76.876107	23.267186	122.427135
	8.791232	21.009550	73.874041	18.327724	113.211314
	8.766604	21.965269	76.086090	21.673811	119.725170
	8.939001	21.168837	75.770083	20.717786	117.656705
	8.889745	24.832426	77.824128	21.992486	124.649040
	9.062142	17.823820	73.558034	18.168386	109.550240
	9.037514	21.168837	74.348051	19.761761	115.278649
	9.111398	18.142393	73.084023	17.849711	109.076127
	9.062142	25.150999	76.718104	25.179236	127.048339
	9.160654	19.257399	76.402096	19.921099	115.580593
	8.865117	22.920988	76.876107	21.673811	121.470906
	9.136026	19.735258	73.716037	19.921099	113.372394
	9.062142	22.761702	77.034110	22.151823	121.947635
	9.037514	20.850264	75.928086	21.036461	117.814811
	9.160654	22.283842	77.350118	21.514474	121.148433
	9.185282	24.513853	77.982132	22.151823	124.647808
	8.988257	22.283842	76.086090	21.514474	119.884405
	9.283795	23.080275	77.824128	26.135261	127.039664
	9.308423	22.602415	76.560100	22.789174	121.951689
	9.431564	19.735258	75.770083	18.805736	114.311076
	9.012885	21.487409	76.402096	21.355136	119.244642
	9.259167	21.646696	77.508121	22.311161	121.465978
	9.037514	24.035993	77.824128	22.948511	124.808633
	9.185282	22.283842	77.508121	23.107848	122.899812
	9.012885	23.558134	78.614146	22.470499	124.642778
	8.939001	22.283842	77.666125	22.629836	122.579803
	9.111398	24.832426	77.666125	25.019899	127.518449
	9.012885	18.779539	75.138069	20.399111	114.316719
	8.741976	22.761702	75.296072	22.629836	120.687610
	8.618835	21.328123	76.244093	22.789174	120.361390
	8.815860	25.150999	77.350118	22.789174	125.290290
	9.062142	22.283842	78.614146	23.107848	124.005836
	8.889745	22.920988	77.508121	22.151823	122.580933
	8.963629	22.602415	76.718104	22.789174	122.109692
	8.840489	22.920988	77.508121	24.223211	124.652320
	8.815860	24.354567	79.088156	23.107848	126.550571
	9.185282	22.602415	75.928086	22.151823	120.682325
	9.037514	22.920988	76.560100	21.833149	121.314236
	9.160654	24.991712	81.458208	25.338573	131.788494
	8.840489	24.832426	78.930153	24.541886	128.304464
	8.914373	21.009550	74.190048	19.921099	115.120696
	9.012885	27.381010	79.878174	24.541886	131.801070
	9.111398	26.106718	80.826194	26.453936	133.386849
	8.914373	23.717420	78.930153	25.657249	128.304822
	8.914373	21.487409	76.086090	19.921099	117.494598
	8.865117	21.965269	76.718104	22.311161	120.994534
	8.914373	21.487409	75.296072	21.673811	118.457293
	8.939001	23.558134	78.140135	23.267186	124.965455
	8.865117	24.195280	77.508121	21.833149	123.536550
	8.840489	21.328123	77.192114	21.673811	120.194048
	8.988257	22.602415	76.086090	21.036461	119.724966
	8.865117	21.965269	77.034110	23.426524	122.425903
	9.234539	24.354567	77.508121	24.382548	126.245236
	8.766604	22.443129	78.930153	21.514474	122.887754
	8.840489	22.283842	77.192114	21.992486	121.468442
	8.914373	23.876707	75.612079	22.789174	122.277959
	8.963629	21.168837	75.928086	21.673811	118.770734
	8.741976	22.920988	77.508121	22.470499	122.899608
	8.791232	22.124555	77.666125	20.877123	120.667804
	8.520323	24.832426	77.508121	21.673811	124.014358
	8.865117	19.894544	73.874041	23.107848	116.876434
	8.717348	23.080275	76.876107	22.151823	122.108205
	8.544951	22.920988	76.402096	21.833149	121.156233
	8.668092	24.035993	75.928086	21.833149	121.797228
	8.914373	20.372404	76.402096	21.355136	118.129637
	9.111398	23.398847	78.614146	22.629836	124.642829
	9.259167	19.098112	75.612079	19.443086	114.153277
	9.086770	24.354567	75.928086	21.195799	121.478451
	9.382307	20.850264	75.612079	21.833149	118.295491
	9.209910	21.009550	74.506055	20.239773	115.755378
	9.160654	19.098112	76.086090	17.053024	112.237225
	8.889745	23.876707	79.404163	24.063874	127.344743
	9.160654	20.850264	73.874041	20.239773	114.964078
	8.815860	23.239561	77.350118	22.470499	123.060177
	8.815860	24.195280	76.402096	21.355136	121.952512
	8.963629	24.832426	80.194181	23.426524	128.453130
	8.766604	20.850264	75.612079	19.283748	115.746091
	8.791232	23.558134	76.244093	22.151823	121.954050
	8.717348	18.142393	73.558034	20.877123	112.577550
	8.717348	22.920988	77.192114	21.355136	121.468238
	8.988257	20.053831	78.456142	20.239773	118.749747
	8.889745	24.832426	77.350118	22.151823	124.334367
	8.988257	18.620252	73.400030	19.761761	111.782044
	8.668092	23.558134	77.034110	21.833149	122.425393
	8.939001	22.602415	77.508121	21.833149	121.943684
	9.012885	25.628858	79.878174	22.948511	128.455543
	9.012885	18.779539	74.822062	20.877123	114.478724
	8.692720	22.761702	76.086090	20.877123	119.724915
	8.988257	20.531690	75.928086	20.717786	117.177563
	8.865117	22.124555	74.980065	20.877123	117.981744
	8.939001	19.575972	73.558034	19.761761	112.895766
	8.988257	23.558134	77.982132	22.789174	124.329439
	9.012885	21.965269	75.928086	18.805736	116.699091
	9.185282	22.761702	78.140135	21.833149	122.734985
	9.308423	20.213117	74.190048	21.514474	115.917639
	9.062142	21.965269	76.244093	22.470499	120.679861
	9.308423	21.009550	73.084023	17.690373	111.783947
	8.914373	21.805983	79.878174	21.992486	123.676642
	9.012885	22.124555	77.192114	22.151823	121.468493
	8.717348	22.920988	76.718104	22.311161	121.950253
	9.037514	21.168837	75.138069	23.426524	119.733429
	8.815860	22.283842	76.402096	21.514474	120.200412
	9.037514	20.053831	76.560100	19.602424	116.216355
	8.889745	24.832426	77.034110	23.745199	125.611735
	9.062142	18.460966	72.926020	20.399111	111.786097
	9.086770	21.487409	75.138069	19.283748	115.909227
	9.259167	21.168837	75.928086	21.036461	118.133384
	8.963629	23.239561	77.192114	20.717786	121.149461
	9.136026	18.620252	74.032044	19.124411	111.776708
	9.037514	22.761702	77.192114	21.514474	121.468289
	9.456192	20.213117	75.928086	20.877123	117.018327
	8.889745	20.372404	74.032044	19.283748	113.688197
	8.988257	19.575972	74.980065	22.311161	116.867198
	8.717348	22.920988	77.350118	23.426524	123.697629
	9.406936	25.150999	75.928086	20.877123	121.956209
	8.889745	24.195280	77.192114	22.948511	124.335905
	9.209910	21.487409	75.296072	22.151823	118.935305
	8.865117	22.443129	75.770083	22.470499	120.683710
	9.111398	23.876707	77.034110	22.311161	123.221978
	9.333051	21.487409	77.982132	21.355136	120.824677
	9.259167	21.328123	76.086090	22.470499	119.884711
	8.939001	22.920988	76.560100	24.701224	124.182311
	9.111398	22.124555	76.560100	21.992486	120.677142
	8.865117	23.080275	77.824128	23.107848	124.012251
	9.308423	20.213117	76.718104	20.877123	117.808345
	8.791232	23.717420	77.034110	22.789174	123.540705
	9.012885	22.443129	77.666125	22.948511	123.057764
	8.421810	23.080275	77.508121	21.833149	122.421544
	8.766604	22.443129	76.876107	23.585861	122.905097
	8.914373	24.673140	76.086090	23.107848	123.867078
	9.037514	21.328123	77.982132	21.514474	120.824728
	8.766604	20.372404	73.716037	19.761761	113.850202
	8.840489	21.009550	76.560100	22.311161	119.880811
	8.865117	24.991712	77.350118	24.223211	126.565041
	9.111398	21.965269	75.928086	23.107848	121.001204
	8.840489	22.602415	75.770083	21.355136	119.727634
	8.840489	25.150999	77.192114	21.833149	124.176262
	8.815860	21.009550	76.402096	23.267186	120.678832
	9.209910	21.487409	74.348051	22.311161	118.146621
	8.865117	23.080275	77.350118	22.151823	122.582216
	8.766604	24.195280	76.560100	22.151823	122.907204
	8.815860	22.761702	78.298139	23.107848	124.167689
	8.815860	24.673140	78.772149	24.860561	128.305849
	8.988257	24.195280	75.138069	23.267186	122.600535
	8.840489	23.239561	76.876107	23.267186	123.382854
	8.692720	22.602415	76.876107	21.036461	120.514983
	8.471067	23.239561	78.298139	23.904536	125.442236
	9.136026	25.150999	77.350118	24.382548	126.883665
	8.939001	21.805983	74.822062	20.877123	117.505167
	9.062142	22.920988	76.244093	22.151823	121.316904
	8.865117	22.124555	75.454076	21.833149	119.411780
	9.136026	21.646696	74.506055	19.761761	115.914512
	8.766604	22.761702	77.508121	23.107848	123.377671
	8.889745	22.283842	77.666125	21.514474	121.464440
	8.914373	22.124555	77.034110	23.267186	122.425852
	8.914373	23.717420	75.612079	25.019899	124.349398
	8.766604	21.965269	75.612079	21.673811	119.251159
	8.889745	22.443129	76.402096	21.833149	120.678373
	8.815860	22.443129	78.772149	21.673811	122.889088
	8.963629	21.487409	76.876107	22.311161	120.674678
	8.791232	22.283842	74.822062	22.311161	119.417065
	8.766604	21.168837	74.506055	20.239773	115.914665
	8.815860	25.310286	77.350118	21.992486	124.652889
	9.456192	23.239561	79.404163	24.541886	127.185610
	9.012885	23.876707	77.508121	26.294599	127.679427
	8.692720	20.850264	74.190048	20.399111	115.439422
	8.939001	21.328123	75.454076	21.036461	117.818660
	9.111398	21.328123	75.612079	21.195799	118.136000
	9.037514	23.398847	80.352184	23.107848	126.858880
	9.333051	23.558134	75.928086	21.036461	120.522681
	8.815860	20.372404	73.242027	20.080436	113.694867
	9.111398	21.965269	75.454076	20.877123	118.296468
	8.865117	25.310286	79.720170	25.975924	131.006379
	9.333051	22.920988	76.718104	24.063874	123.702965
	9.456192	22.283842	76.402096	21.833149	120.519087
	8.988257	22.124555	74.506055	21.195799	117.826409
	8.840489	22.283842	76.402096	22.151823	120.837762
	9.086770	21.009550	74.664058	20.877123	116.550732
	9.012885	22.920988	77.508121	22.470499	122.899608
	8.840489	20.531690	74.664058	19.283748	114.479497
	8.865117	25.469572	77.192114	22.311161	124.972847
	9.160654	19.735258	74.664058	21.514474	115.913790
	9.111398	23.717420	76.560100	21.355136	121.632657
	9.185282	20.372404	74.348051	20.399111	115.119566
	9.086770	24.832426	76.402096	22.470499	123.705021
	9.579332	20.372404	78.456142	21.195799	120.024345
	9.062142	22.920988	77.192114	22.311161	122.424263
	9.308423	19.575972	72.768016	22.151823	114.495811
	9.012885	23.239561	75.138069	19.921099	118.298728
	9.062142	19.575972	74.506055	21.992486	116.074512
	8.914373	24.991712	79.404163	25.497911	129.893786
	8.963629	20.531690	74.032044	17.849711	112.413445
	8.569579	22.602415	75.612079	23.107848	121.322343
	9.012885	21.965269	76.086090	22.151823	120.203182
	8.865117	23.876707	77.034110	22.948511	123.859328
	9.160654	21.965269	78.456142	21.036461	121.457872
	9.111398	22.283842	76.402096	21.036461	119.722399
	9.012885	19.257399	73.242027	18.646399	111.145824
	8.840489	22.920988	76.402096	23.426524	122.749608
	8.865117	23.080275	77.192114	24.382548	124.654937
	8.741976	22.602415	77.508121	22.311161	122.421697
	9.062142	21.009550	75.612079	21.355136	117.976765
	8.865117	26.106718	75.454076	22.151823	123.712617
	9.062142	21.009550	76.560100	22.470499	120.040149
	8.914373	22.920988	75.770083	21.833149	120.524219
	9.012885	21.646696	75.454076	21.514474	118.615245
	8.766604	26.425291	77.982132	22.470499	126.877921
	8.865117	21.805983	78.614146	25.019899	125.440027
	8.914373	23.239561	76.718104	22.948511	122.906176
	8.988257	22.283842	76.718104	22.311161	121.313107
	8.668092	24.991712	76.718104	23.585861	125.295677
	9.037514	23.080275	77.508121	23.107848	123.696244
	8.963629	23.080275	80.194181	22.629836	125.904291
	8.914373	22.920988	76.244093	21.036461	120.201542
	8.791232	21.965269	74.664058	21.036461	117.665788
	8.815860	23.239561	77.192114	24.063874	124.495548
	9.012885	22.920988	76.402096	23.107848	122.430933
	9.259167	25.947432	77.508121	22.470499	125.926051
	9.012885	21.965269	77.508121	22.629836	122.103226
	8.865117	23.558134	75.454076	22.948511	121.960721
	9.037514	21.009550	75.454076	21.514474	117.978099
	9.012885	24.354567	75.454076	21.673811	121.482453
	9.382307	20.690977	74.822062	19.602424	115.115462
	8.865117	23.558134	76.718104	21.514474	121.790711
	9.037514	25.150999	76.876107	23.426524	125.453630
	9.037514	22.443129	77.508121	24.860561	124.811811
	9.062142	21.328123	75.138069	20.877123	117.343315
	8.668092	24.354567	78.772149	23.426524	126.553239
	8.889745	23.398847	75.612079	20.877123	119.888050
	8.865117	22.602415	76.244093	22.311161	121.157669
	9.012885	20.690977	74.506055	19.921099	115.118130
	9.062142	24.035993	76.244093	21.992486	122.272572
	9.160654	19.575972	72.768016	18.965074	111.309061
	8.939001	21.805983	75.612079	22.151823	119.569885
	9.012885	21.168837	76.876107	21.673811	119.718755
	8.815860	25.310286	76.876107	21.673811	123.860204
	9.209910	18.779539	72.452009	18.965074	110.196622
	8.815860	24.513853	77.192114	23.107848	124.813816
	9.136026	21.965269	75.612079	21.355136	118.932484
	8.791232	26.903150	80.984198	22.311161	130.198510
	9.136026	20.531690	75.928086	19.761761	116.221538
	9.012885	23.876707	76.718104	24.063874	124.658684
	9.234539	22.124555	77.192114	24.223211	123.539881
	9.037514	24.991712	76.560100	21.036461	122.588274
	9.012885	21.965269	76.560100	21.673811	120.199180
	8.889745	23.080275	76.560100	21.992486	121.632861
	9.086770	23.717420	78.140135	22.789174	124.646729
	8.914373	22.920988	76.560100	21.992486	121.473574
	8.840489	22.602415	75.138069	22.151823	119.892307
	8.766604	23.558134	75.454076	22.311161	121.323371
	9.136026	25.150999	76.876107	25.497911	127.525017
	8.741976	22.602415	78.456142	22.789174	123.847731
	8.914373	24.991712	78.140135	24.382548	127.514396
	8.840489	20.690977	73.558034	20.239773	114.488784
	8.865117	22.761702	75.138069	21.673811	119.573581
	9.012885	23.558134	77.350118	22.629836	123.538088
	8.889745	24.354567	78.456142	23.107848	125.918557
	8.840489	25.469572	76.560100	21.673811	123.703483
	8.569579	20.053831	72.136002	19.124411	111.314244
	9.012885	21.328123	73.874041	22.948511	118.150675
	9.062142	22.602415	74.980065	21.036461	118.618941
	8.889745	22.443129	75.296072	19.761761	117.500962
	8.692720	23.558134	76.560100	22.470499	122.588733
	8.717348	21.009550	73.558034	20.239773	114.807357
	8.741976	23.717420	76.402096	22.789174	122.908691
	8.988257	21.168837	73.874041	20.239773	115.282651
	8.766604	22.124555	77.824128	20.399111	120.347795
	9.283795	21.487409	74.822062	21.992486	118.301957
	8.914373	24.513853	74.032044	23.745199	122.291095
	9.136026	19.575972	74.190048	20.080436	113.846455
	9.012885	23.398847	75.612079	22.151823	121.162750
	8.963629	21.328123	75.296072	21.195799	117.819994
	8.865117	25.628858	76.244093	22.151823	124.024775
	8.939001	21.805983	76.402096	22.151823	120.359903
	8.865117	22.283842	75.296072	19.921099	117.501013
	8.741976	21.965269	74.190048	22.151823	118.307140
	8.643463	24.832426	75.612079	24.223211	124.667716
	8.520323	23.876707	78.456142	22.470499	124.803348
	8.544951	24.832426	78.614146	23.267186	126.713758
	8.840489	23.398847	76.718104	23.107848	123.224800
	8.668092	23.717420	75.612079	22.948511	122.278010
	8.766604	24.513853	77.034110	23.745199	125.293162
	8.717348	22.602415	75.454076	21.036461	119.092952
	8.692720	25.947432	79.562167	21.036461	126.546059
	8.791232	20.690977	74.980065	20.717786	116.388828
	9.012885	23.239561	74.506055	23.585861	121.331477
	8.889745	19.735258	73.716037	19.124411	112.575706
	8.594207	22.443129	75.138069	21.036461	118.617658
	9.185282	21.328123	75.770083	20.877123	117.975329
	8.914373	24.673140	77.192114	23.426524	125.291777
	9.012885	23.398847	72.768016	19.761761	115.928625
	8.865117	21.009550	75.138069	20.877123	117.024742
	9.086770	22.443129	75.454076	20.399111	118.296315
	9.012885	23.717420	78.772149	23.745199	126.234768
	9.160654	21.646696	72.768016	19.602424	114.017136
	8.988257	23.398847	76.718104	20.399111	120.516062
	9.012885	19.894544	73.558034	19.443086	112.895664
	8.840489	23.876707	76.560100	23.107848	123.544656
	9.136026	20.053831	73.716037	19.921099	113.690967
	8.766604	22.761702	76.560100	21.673811	120.995613
	8.988257	22.124555	76.876107	20.558449	119.559111
	8.717348	24.832426	76.244093	21.355136	122.431655
	8.963629	19.735258	72.452009	24.382548	116.569816
	8.741976	24.195280	76.560100	22.789174	123.544554
	8.766604	21.646696	75.612079	20.877123	118.135898
	8.889745	25.947432	77.192114	21.355136	124.494681
	8.889745	21.328123	75.770083	21.673811	118.772017
	8.520323	24.991712	76.718104	23.745199	125.455015
	8.569579	21.965269	75.770083	20.877123	118.612475
	8.594207	24.991712	75.454076	20.877123	121.322912
	8.815860	24.035993	78.140135	24.860561	127.036690
	8.717348	23.398847	76.244093	23.426524	123.069464
	8.741976	24.673140	75.612079	22.151823	122.437042
	8.643463	21.487409	75.454076	21.036461	117.977946
	8.963629	20.850264	73.400030	19.443086	113.693379
	8.741976	22.283842	76.876107	22.311161	121.471110
	8.766604	24.354567	77.508121	21.673811	123.536499
	8.741976	21.487409	73.242027	20.558449	115.287885
	8.840489	23.876707	76.560100	21.833149	122.269956
	9.012885	21.646696	74.980065	21.992486	118.619247
	8.914373	20.053831	72.926020	21.195799	114.175649
	8.692720	20.531690	74.506055	19.602424	114.640169
	8.865117	23.876707	77.508121	22.470499	123.855327
	9.012885	23.558134	74.822062	21.036461	119.416657
	8.815860	21.805983	74.664058	21.833149	118.303189
	8.865117	20.690977	73.874041	19.761761	114.326779
	8.692720	23.239561	75.928086	21.036461	120.204108
	8.865117	22.124555	76.560100	19.124411	117.809067
	8.766604	22.443129	76.086090	24.063874	122.593092
	9.012885	20.690977	71.977998	19.283748	111.952724
	8.914373	19.735258	73.242027	19.761761	112.739046
	8.914373	21.965269	73.716037	19.602424	115.283730
	8.840489	24.035993	78.456142	23.107848	125.599984
	9.086770	21.328123	75.138069	21.036461	117.502653
	8.594207	25.788145	77.034110	23.267186	126.089441
	9.012885	18.779539	72.452009	17.690373	108.921921
	8.791232	24.832426	77.034110	25.497911	127.364447
	8.939001	21.965269	73.874041	22.311161	118.150471
	8.988257	24.832426	75.928086	20.558449	121.318961
	8.815860	21.646696	77.508121	21.992486	121.147303
	8.815860	25.150999	77.350118	23.426524	125.927640
	9.062142	21.487409	73.558034	20.877123	115.922567
	8.520323	21.487409	72.926020	19.602424	114.015853
	8.963629	21.487409	74.980065	20.239773	116.707248
	8.766604	23.398847	77.192114	21.036461	121.627423
	8.594207	22.602415	74.348051	22.311161	119.261627
	8.520323	23.717420	76.402096	24.860561	124.980078
	8.840489	24.832426	76.718104	22.151823	123.702353
	8.717348	22.761702	76.086090	21.514474	120.362265
	8.791232	25.310286	77.824128	22.629836	125.764250
	8.791232	22.283842	75.612079	21.992486	119.888407
	8.471067	23.717420	75.138069	21.833149	120.688637
	9.234539	21.487409	74.980065	20.877123	117.344598
	8.791232	22.283842	73.874041	18.965074	115.122956
	9.012885	20.850264	77.034110	22.629836	120.514210
	8.618835	24.195280	76.718104	23.585861	124.499245
	8.988257	23.239561	71.661992	19.761761	114.663314
	8.840489	22.761702	76.402096	22.151823	121.315621
	8.914373	18.620252	71.503988	18.168386	108.292627
	8.815860	23.717420	76.876107	22.151823	122.745351
	9.012885	22.920988	74.348051	19.443086	116.712125
	8.594207	24.195280	75.770083	22.629836	122.595198
	8.939001	22.761702	75.612079	22.948511	121.322291
	8.988257	23.080275	74.664058	22.470499	120.214831
	9.111398	24.354567	75.928086	22.151823	122.434476
	8.791232	22.602415	76.244093	22.311161	121.157669
	9.012885	24.991712	79.720170	24.541886	129.253769
	8.840489	22.283842	75.454076	21.833149	119.571066
	8.963629	24.035993	74.506055	21.833149	120.375197
	8.791232	22.602415	74.980065	20.239773	117.822254
	8.569579	24.832426	77.192114	23.426524	125.451064
	9.037514	26.266004	79.878174	23.585861	129.730039
	8.889745	22.283842	75.770083	20.239773	118.293698
	9.012885	20.690977	72.136002	19.283748	112.110728
	8.988257	22.920988	76.086090	22.151823	121.158901
	9.062142	19.098112	71.345985	17.371699	107.815795
	8.840489	23.717420	77.508121	22.470499	123.696040
	9.185282	21.168837	74.032044	20.239773	115.440654
	8.791232	27.699583	77.350118	23.107848	128.157549
	8.914373	22.761702	77.034110	22.311161	122.106973
	8.668092	23.239561	75.612079	23.426524	122.278163
	8.815860	23.080275	78.456142	21.195799	122.732215
	8.643463	24.991712	75.928086	21.673811	122.593610
	8.914373	21.805983	74.980065	20.877123	117.663171
	8.618835	23.876707	76.086090	22.311161	122.273958
	8.421810	21.646696	74.664058	21.036461	117.347215
	8.815860	22.602415	75.770083	20.239773	118.612271
	8.741976	23.558134	76.560100	21.195799	121.314032
	8.865117	24.513853	77.034110	23.745199	125.293162
	8.791232	24.513853	76.402096	23.426524	124.342473
	9.086770	22.283842	74.348051	20.399111	117.031004
	8.963629	22.443129	74.664058	21.355136	118.462323
	9.185282	23.717420	74.506055	19.761761	117.985236
	8.963629	26.106718	77.192114	21.514474	124.813306
	9.037514	20.372404	74.822062	20.239773	115.434239
	8.963629	23.717420	74.822062	21.514474	120.053956
	8.815860	20.690977	74.822062	20.877123	116.390162
	8.717348	26.106718	76.244093	25.338573	127.689384
	9.037514	21.646696	77.508121	21.355136	120.509953
	8.741976	23.558134	75.928086	21.673811	121.160031
	8.791232	21.965269	75.612079	21.514474	119.091822
	8.865117	23.398847	76.402096	22.311161	122.112105
	8.914373	23.558134	75.928086	23.107848	122.594069
	8.717348	23.080275	76.876107	21.195799	121.152180
	8.865117	26.425291	77.350118	22.470499	126.245907
	8.963629	23.398847	74.980065	22.629836	121.008748
	8.939001	22.443129	74.980065	24.541886	121.965080
	8.988257	22.920988	75.928086	22.151823	121.000898
	8.717348	22.920988	75.612079	20.399111	118.932178
	8.766604	22.920988	76.244093	22.151823	121.316904
	8.520323	19.894544	73.242027	18.646399	111.782970
	8.963629	21.805983	74.348051	20.558449	116.712482
	8.717348	26.584578	79.562167	25.975924	132.122668
	9.111398	21.487409	75.454076	20.080436	117.021921
	8.643463	23.558134	76.560100	22.311161	122.429395
	9.012885	25.469572	77.192114	25.019899	127.681585
	8.815860	23.558134	77.034110	22.311161	122.903405
	9.062142	23.717420	75.138069	22.789174	121.644663
	8.791232	22.761702	75.612079	22.311161	120.684941
	9.111398	24.673140	76.402096	22.470499	123.545735
	8.988257	22.920988	77.508121	21.833149	122.262258
	9.012885	24.195280	77.192114	22.629836	124.017230
	8.791232	23.398847	74.348051	21.833149	119.580047
	8.889745	23.080275	76.244093	24.223211	123.547579
	8.692720	23.239561	75.928086	20.399111	119.566758
	8.865117	23.080275	75.138069	22.151823	120.370167
	8.569579	26.425291	77.666125	23.426524	127.517939
	8.618835	22.761702	77.982132	22.311161	123.054994
	8.569579	26.106718	78.614146	24.701224	129.422087
	8.446438	25.469572	77.034110	23.267186	125.770869
	8.791232	24.195280	75.612079	20.877123	120.684482
	8.594207	21.965269	75.928086	23.267186	121.160541
	8.791232	21.805983	74.822062	22.151823	118.779867
	8.594207	22.761702	75.454076	20.080436	118.296213
	9.012885	20.213117	72.452009	19.761761	112.426887
	9.012885	24.513853	75.928086	23.267186	123.709125
	8.988257	19.098112	73.084023	18.327724	110.509859
	8.815860	26.743864	78.930153	22.948511	128.622528
	9.259167	18.938826	73.242027	18.327724	110.508576
	8.939001	22.761702	74.506055	20.239773	117.507530
	9.062142	20.531690	74.664058	22.470499	117.666247
	8.939001	25.947432	77.034110	24.223211	127.204753
	8.988257	22.443129	78.614146	20.717786	121.775060
	8.741976	22.602415	75.454076	20.877123	118.933614
	9.037514	24.195280	74.032044	21.833149	120.060473
	8.939001	22.283842	75.770083	21.992486	120.046410
	8.963629	23.876707	77.034110	22.629836	123.540653
	8.914373	23.080275	77.192114	21.514474	121.786862
	8.939001	25.150999	76.718104	21.992486	123.861589
	8.766604	22.443129	74.980065	25.657249	123.080442
	8.815860	23.876707	76.718104	22.311161	122.905972
	8.889745	22.920988	75.296072	21.992486	120.209546
	8.692720	25.310286	76.402096	22.789174	124.501556
	9.111398	22.283842	75.928086	21.833149	120.045076
	8.717348	22.920988	76.876107	21.355136	121.152231
	8.988257	20.690977	74.664058	19.602424	114.957459
	8.914373	22.283842	74.032044	19.921099	116.236985
	8.791232	20.531690	73.874041	21.036461	115.442192
	9.012885	25.469572	77.824128	22.629836	125.923536
	9.431564	24.513853	79.246160	21.355136	125.115149
	9.012885	22.761702	76.876107	22.470499	122.108307
	9.111398	21.009550	72.610012	20.399111	114.018674
	8.865117	24.035993	76.244093	22.948511	123.228597
	8.914373	25.150999	76.718104	22.629836	124.498939
	8.791232	22.761702	77.508121	21.195799	121.465621
	8.939001	22.761702	76.244093	21.992486	120.998280
	8.668092	24.354567	74.980065	22.789174	122.123805
	8.741976	22.124555	75.770083	22.470499	120.365137
	8.741976	23.080275	75.928086	21.036461	120.044822
	8.988257	23.239561	79.246160	22.311161	124.796881
	9.357679	24.354567	75.612079	21.195799	121.162444
	9.062142	23.558134	75.928086	22.789174	122.275394
	9.382307	21.009550	74.348051	19.921099	115.278700
	8.963629	22.602415	75.770083	20.558449	118.930946
	9.431564	21.646696	76.560100	20.399111	118.605907
	8.988257	24.195280	77.192114	23.904536	125.291930
	9.111398	23.398847	76.086090	21.992486	121.477423
	8.815860	23.398847	75.612079	20.717786	119.728713
	8.766604	22.443129	75.770083	21.992486	120.205697
	8.963629	23.717420	75.138069	22.151823	121.007313
	8.840489	22.602415	75.454076	21.036461	119.092952
	8.914373	23.876707	75.612079	19.283748	118.772534
	8.668092	23.876707	77.666125	22.311161	123.853993
	9.283795	20.053831	72.452009	20.877123	113.382964
	8.914373	22.443129	75.612079	22.789174	120.844381
	9.111398	24.035993	75.454076	21.036461	120.526530
	8.939001	22.602415	79.404163	21.992486	123.999064
	9.259167	23.239561	77.192114	22.470499	122.902174
	8.840489	22.920988	75.454076	22.151823	120.526887
	9.357679	24.832426	77.982132	23.267186	126.081744
	9.037514	22.602415	75.612079	20.877123	119.091617
	8.914373	23.398847	77.982132	22.789174	124.170153
	8.741976	27.699583	79.562167	27.569299	134.831048
	8.914373	23.239561	75.612079	23.107848	121.959488
	8.889745	22.443129	75.770083	20.399111	118.612322
	8.840489	25.310286	78.298139	24.223211	127.831635
	9.185282	20.372404	77.034110	18.965074	116.371588
	9.012885	23.717420	77.034110	22.311161	123.062692
	9.234539	19.098112	72.136002	17.849711	109.083825
	8.939001	24.195280	75.928086	20.558449	120.681815
	9.209910	20.531690	74.506055	20.399111	115.436856
	8.889745	23.876707	77.982132	25.179236	127.038075
	8.988257	22.761702	76.876107	22.151823	121.789632
	8.865117	25.628858	75.612079	21.514474	122.755411
	8.766604	22.920988	76.560100	22.311161	121.792249
	8.914373	22.602415	74.822062	21.514474	118.938950
	8.840489	22.602415	74.980065	22.151823	119.734304
	9.136026	22.920988	75.138069	20.239773	118.298830
	9.062142	22.602415	77.666125	21.355136	121.623676
	9.086770	22.124555	75.928086	22.311161	120.363803
	8.815860	24.673140	75.928086	23.585861	124.187087
	9.062142	23.558134	77.824128	23.107848	124.490111
	9.037514	23.876707	77.034110	22.470499	123.381316
	9.283795	24.035993	79.720170	23.107848	126.864012
	9.037514	25.469572	77.034110	22.311161	124.814843
	8.939001	23.398847	78.298139	22.789174	124.486160
	8.963629	24.354567	77.508121	21.514474	123.377161
	8.865117	23.717420	76.402096	23.267186	123.386703
	8.914373	24.195280	76.086090	22.789174	123.070543
	9.308423	23.080275	77.508121	20.399111	120.987507
	9.111398	20.690977	73.716037	19.283748	113.690763
	9.037514	23.080275	76.876107	22.311161	122.267543
	9.136026	21.805983	74.506055	20.558449	116.870486
	9.185282	21.965269	74.190048	20.877123	117.032440
	9.259167	22.761702	76.560100	21.355136	120.676938
	9.062142	26.743864	79.088156	21.833149	127.665169
	9.086770	21.965269	77.034110	22.470499	121.469878
	8.939001	25.469572	78.456142	25.497911	129.423625
	8.939001	20.372404	74.822062	18.487061	113.681527
	8.988257	23.080275	75.454076	20.399111	118.933461
	9.456192	21.965269	75.770083	20.877123	118.612475
	8.815860	23.239561	79.404163	22.151823	124.795547
	8.988257	23.717420	73.716037	20.558449	117.991906
	9.037514	17.345961	71.819995	17.531036	106.696992
	9.136026	23.717420	77.034110	20.558449	121.309979
	9.136026	20.690977	76.876107	21.036461	118.603545
	9.037514	25.310286	76.718104	23.267186	125.295575
	9.357679	21.487409	75.612079	20.717786	117.817274
	8.988257	23.876707	77.034110	22.311161	123.221978
	9.283795	21.487409	75.928086	19.921099	117.336594
	8.939001	24.035993	79.404163	21.514474	124.954630
	9.185282	23.080275	77.192114	22.470499	122.742887
	8.914373	23.398847	77.034110	21.195799	121.628757
	8.914373	22.602415	76.560100	22.470499	121.633014
	9.086770	21.009550	73.084023	22.470499	116.564072
	9.111398	21.328123	74.980065	19.761761	116.069949
	9.062142	21.805983	75.770083	20.877123	118.453188
	8.840489	25.150999	78.298139	21.673811	125.122949
	9.333051	19.257399	74.664058	19.921099	113.842555
	8.889745	22.920988	74.822062	21.355136	119.098186
	9.111398	22.920988	76.244093	21.195799	120.360879
	8.840489	24.991712	76.560100	21.036461	122.588274
	9.259167	22.283842	77.824128	23.426524	123.534493
	8.889745	22.920988	76.718104	24.541886	124.180978
	9.037514	24.832426	75.454076	21.195799	121.482300
	8.766604	20.850264	74.980065	20.558449	116.388777
	9.037514	23.080275	76.718104	22.151823	121.950202
	9.283795	22.602415	79.088156	22.151823	123.842395
	9.160654	26.584578	77.982132	23.585861	128.152570
	9.308423	19.894544	72.610012	19.283748	111.788305
	8.963629	23.717420	76.086090	21.514474	121.317984
	9.185282	20.372404	74.980065	20.877123	116.229592
	8.939001	24.354567	78.614146	24.860561	127.829273
	8.939001	22.602415	76.876107	21.992486	121.471008
	8.889745	22.443129	74.980065	21.036461	118.459654
	9.012885	23.717420	76.560100	22.311161	122.588682
	9.259167	22.283842	76.560100	21.673811	120.517753
	8.815860	22.920988	77.824128	21.833149	122.578264
	8.963629	22.602415	75.928086	20.080436	118.610937
	8.939001	25.947432	77.508121	22.151823	125.607376
	9.160654	19.735258	74.822062	21.355136	115.912456
	8.963629	23.239561	75.928086	20.239773	119.407421
	8.988257	20.053831	74.190048	19.761761	114.005640
	9.062142	26.425291	77.824128	23.267186	127.516605
	8.840489	22.920988	79.246160	22.789174	124.956321
	8.766604	24.513853	78.140135	22.948511	125.602499
	9.136026	22.283842	74.664058	21.673811	118.621711
	8.865117	21.487409	74.664058	18.805736	114.957204
	9.160654	21.965269	76.560100	25.179236	123.704605
	9.037514	23.398847	77.508121	22.789174	123.696142
	9.012885	24.991712	77.192114	21.673811	123.857638
	8.988257	21.965269	74.822062	21.673811	118.461141
	8.963629	23.398847	76.718104	22.311161	122.428112
	9.136026	22.283842	76.244093	21.514474	120.042408
	9.086770	24.195280	79.404163	21.514474	125.113916
	9.259167	21.487409	76.086090	19.921099	117.494598
	9.308423	23.080275	74.822062	21.036461	118.938797
	9.554704	21.646696	74.348051	21.992486	117.987233
	9.357679	23.398847	77.982132	24.382548	125.763528
	9.505448	20.053831	75.770083	19.124411	114.948325
	9.234539	25.628858	79.088156	24.223211	128.940225
	9.603961	23.876707	74.190048	20.877123	118.943878
	8.914373	23.876707	78.456142	23.904536	126.237385
	9.037514	23.080275	76.876107	22.311161	122.267543
	9.259167	22.761702	78.456142	21.992486	123.210330
	9.185282	24.354567	77.034110	21.833149	123.221825
	9.357679	20.213117	75.770083	22.629836	118.613036
	8.988257	24.035993	77.824128	23.267186	125.127308
	9.234539	21.646696	73.242027	18.965074	113.853796
	9.160654	23.558134	77.982132	23.585861	125.126126
	9.382307	21.805983	76.086090	21.036461	118.928533
	8.988257	24.991712	81.932219	24.063874	130.987805
	9.333051	24.354567	76.560100	21.195799	122.110465
	9.062142	22.761702	75.612079	21.833149	120.206929
	9.160654	23.398847	77.192114	24.701224	125.292185
	9.062142	22.761702	76.560100	22.311161	121.632963
	9.136026	25.310286	78.930153	22.789174	127.029612
	9.259167	22.602415	77.666125	22.789174	123.057713
	9.062142	25.150999	77.508121	23.745199	126.404319
	9.111398	21.805983	76.244093	21.673811	119.723886
	9.160654	24.035993	77.192114	22.311161	123.539269
	9.333051	23.398847	77.982132	22.151823	123.532803
	9.086770	24.673140	77.824128	22.948511	125.445779
	9.209910	23.876707	74.980065	22.151823	121.008595
	9.136026	23.717420	77.666125	24.541886	125.925431
	9.283795	23.239561	77.192114	22.151823	122.583498
	9.086770	21.965269	77.508121	22.151823	121.625214
	9.185282	22.920988	76.718104	21.833149	121.472240
	9.136026	23.080275	75.928086	22.789174	121.797534
	9.111398	23.398847	76.876107	22.470499	122.745453
	9.086770	24.035993	74.664058	19.602424	118.302475
	8.963629	20.531690	74.980065	20.558449	116.070204
	9.111398	22.283842	76.402096	22.789174	121.475112
	9.136026	24.673140	79.088156	24.223211	127.984507
	9.259167	23.080275	75.296072	19.602424	117.978770
	9.259167	22.283842	75.928086	21.992486	120.204414
	9.382307	21.965269	75.612079	21.833149	119.410496
	9.136026	22.602415	76.876107	21.992486	121.471008
	9.357679	21.965269	78.456142	20.558449	120.979860
	9.283795	23.558134	77.508121	21.514474	122.580729
	9.185282	21.965269	74.348051	22.470499	118.783819
	8.963629	23.398847	76.244093	23.107848	122.750789
	9.283795	23.717420	78.456142	22.311161	124.484724
	9.086770	21.965269	76.876107	20.877123	119.718499
	9.308423	23.876707	78.140135	22.789174	124.806016
	9.259167	26.106718	76.560100	22.789174	125.455992
	9.062142	21.965269	76.718104	22.311161	120.994534
	9.086770	23.239561	76.086090	21.833149	121.158799
	9.062142	21.805983	74.506055	21.514474	117.826511
	9.283795	23.239561	74.980065	23.107848	121.327474
	9.160654	22.124555	77.666125	21.833149	121.623829
	9.308423	20.372404	74.980065	19.921099	115.273567
	9.185282	23.080275	75.296072	21.036461	119.412808
	9.653217	19.098112	74.190048	20.080436	113.368595
	9.480820	23.558134	77.666125	22.470499	123.694757
	9.530076	24.195280	80.194181	24.063874	128.453334
	9.209910	26.743864	77.982132	22.789174	127.515169
	9.111398	23.876707	77.824128	24.063874	125.764708
	9.012885	21.009550	74.190048	23.107848	118.307446
	9.259167	22.920988	78.298139	23.426524	124.645650
	9.012885	22.124555	77.508121	20.399111	120.031788
	8.889745	22.124555	76.560100	21.833149	120.517804
	8.889745	22.124555	75.612079	21.514474	119.251108
	9.062142	23.239561	75.454076	21.195799	119.889435
	9.308423	22.124555	77.666125	22.311161	122.101841
	9.111398	23.717420	80.668191	21.992486	126.378098
	9.308423	21.328123	75.928086	21.833149	119.089358
	9.111398	25.469572	75.454076	25.497911	126.421559
	9.603961	18.460966	73.874041	18.327724	110.662730
	9.406936	22.920988	76.402096	21.514474	120.837558
	9.727101	20.053831	76.718104	20.558449	117.330383
	9.111398	24.991712	77.350118	22.948511	125.290341
	9.554704	22.283842	75.928086	22.470499	120.682427
	9.136026	24.991712	78.456142	25.179236	128.627091
	9.431564	22.283842	75.454076	21.355136	119.093054
	9.111398	22.761702	76.086090	24.223211	123.071002
	9.086770	22.920988	78.456142	21.514474	122.891604
	9.160654	23.558134	79.562167	23.267186	126.387487
	8.963629	23.558134	75.928086	21.195799	120.682018
	9.259167	21.009550	74.980065	21.514474	117.504088
	8.889745	23.080275	76.086090	21.992486	121.158850
	9.209910	22.602415	77.034110	21.514474	121.150999
	9.086770	23.876707	80.036177	21.036461	124.949345
	9.406936	20.213117	75.612079	20.877123	116.702320
	9.382307	23.876707	75.770083	24.541886	124.188676
	9.111398	22.283842	74.348051	19.761761	116.393654
	9.185282	21.009550	76.244093	21.673811	118.927454
	9.456192	23.876707	80.036177	24.223211	128.136095
	9.160654	24.195280	77.350118	23.107848	124.653246
	9.382307	24.673140	76.402096	22.470499	123.545735
	9.037514	22.920988	76.876107	21.992486	121.789581
	9.062142	24.035993	77.824128	22.151823	124.011945
	9.062142	23.717420	81.616212	24.223211	129.556844
	9.357679	21.328123	75.612079	21.833149	118.773350
	9.209910	23.398847	75.770083	21.195799	120.364729
	9.333051	22.443129	76.244093	21.833149	120.520370
	9.530076	23.398847	74.980065	20.717786	119.096699
	9.259167	20.531690	76.402096	21.195799	118.129585
	9.579332	21.965269	76.402096	21.514474	119.881839
	9.209910	24.354567	78.298139	23.107848	125.760554
	9.185282	22.920988	75.296072	19.602424	117.819484
	9.062142	22.761702	76.244093	25.497911	124.503705
	9.185282	21.487409	75.928086	22.311161	119.726657
	9.062142	23.558134	77.666125	22.151823	123.376082
	9.234539	23.876707	78.614146	22.629836	125.120688
	8.865117	22.602415	77.192114	22.470499	122.265028
	8.988257	22.283842	75.770083	22.470499	120.524423
	9.185282	20.690977	75.928086	19.921099	116.540162
	9.160654	25.150999	79.088156	23.904536	128.143691
	9.185282	21.009550	77.508121	22.311161	120.828832
	9.160654	23.398847	77.034110	23.107848	123.540807
	9.234539	22.283842	73.242027	18.487061	114.012929
	9.185282	21.805983	76.402096	21.833149	120.041227
	9.628589	20.531690	74.980065	19.921099	115.432854
	9.505448	20.372404	76.402096	20.877123	117.651624
	9.111398	23.080275	76.244093	21.195799	120.520166
	9.012885	24.035993	76.560100	22.948511	123.544605
	9.480820	22.283842	76.718104	21.514474	120.516419
	9.653217	23.558134	74.980065	21.673811	120.212010
	9.111398	20.690977	78.456142	23.745199	122.892318
	9.160654	22.761702	77.034110	21.355136	121.150948
	8.963629	22.920988	77.350118	22.311161	122.582267
	9.062142	24.832426	76.560100	22.470499	123.863025
	9.037514	21.328123	75.612079	21.514474	118.454676
	9.283795	20.213117	75.928086	20.399111	116.540315
	8.741976	23.558134	78.456142	22.789174	124.803449
	9.333051	21.965269	76.244093	21.355136	119.564498
	9.086770	23.398847	77.350118	23.745199	124.494164
	9.234539	20.850264	73.716037	20.877123	115.443424
	8.594207	26.266004	78.140135	24.223211	128.629350
	8.963629	19.894544	76.244093	21.036461	117.175098
	8.741976	22.602415	78.140135	22.151823	122.894374
	8.865117	22.283842	77.034110	22.311161	121.629113
	8.840489	26.106718	76.560100	22.151823	124.818642
	8.569579	21.487409	76.876107	20.558449	118.921965
	8.988257	22.920988	76.876107	23.745199	123.542294
	8.741976	21.009550	75.612079	22.151823	118.773452
	8.939001	22.283842	74.980065	18.805736	116.069643
	8.741976	23.239561	79.404163	23.107848	125.751572
	9.062142	22.283842	76.876107	21.833149	120.993098
	8.741976	21.009550	73.400030	19.283748	113.693329
	9.012885	23.239561	79.088156	23.904536	126.232253
	8.889745	26.425291	81.458208	25.497911	133.381411
	8.963629	23.398847	77.350118	22.151823	122.900789
	8.963629	24.991712	76.560100	23.585861	125.137674
	8.643463	22.602415	76.718104	23.904536	123.225055
	8.692720	22.443129	76.244093	20.239773	118.926995
	8.988257	21.646696	76.244093	21.036461	118.927250
	9.136026	21.646696	77.982132	21.673811	121.302639
	8.741976	23.239561	77.666125	22.789174	123.694859
	8.840489	22.602415	76.876107	22.470499	121.949021
	8.717348	24.673140	77.192114	21.514474	123.379727
	9.037514	21.487409	77.350118	21.036461	119.873988
	8.865117	22.443129	77.824128	24.063874	124.331130
	8.766604	22.920988	77.508121	23.904536	124.333645
	8.939001	24.832426	75.928086	22.311161	123.071673
	8.717348	23.717420	78.298139	23.904536	125.920095
	9.111398	21.009550	75.612079	20.717786	117.339415
	8.717348	22.124555	78.614146	22.629836	123.368537
	8.914373	20.213117	74.822062	19.124411	114.159590
	8.668092	22.443129	75.454076	21.833149	119.730353
	8.865117	21.646696	76.876107	22.789174	121.311977
	8.741976	24.673140	77.824128	24.860561	127.357829
	8.988257	21.328123	77.824128	21.833149	120.985399
	9.037514	24.195280	78.930153	23.745199	126.870631
	8.865117	22.602415	77.982132	22.311161	122.895708
	9.234539	22.602415	74.980065	20.558449	118.140929
	8.939001	21.487409	75.928086	21.195799	118.611294
	9.086770	19.894544	74.506055	18.805736	113.206335
	8.865117	22.920988	77.350118	22.470499	122.741604
	9.308423	23.558134	79.720170	23.904536	127.182840
	8.692720	24.673140	78.930153	22.311161	125.914453
	8.766604	22.920988	76.086090	22.470499	121.477576
	8.815860	22.602415	75.770083	21.992486	120.364984
	8.766604	22.761702	78.456142	23.426524	124.644367
	8.692720	22.283842	78.456142	22.311161	123.051145
	8.889745	22.761702	77.034110	22.151823	121.947635
	8.988257	23.558134	75.928086	21.355136	120.841356
	8.914373	20.372404	75.138069	20.239773	115.750246
	8.741976	20.213117	74.664058	21.195799	116.072974
	8.618835	22.761702	81.142202	22.470499	126.374402
	8.766604	22.602415	76.876107	21.833149	121.311670
	8.741976	22.761702	75.454076	21.673811	119.889588
	8.840489	23.398847	76.876107	22.948511	123.223466
	9.086770	24.513853	76.560100	21.833149	122.907102
	8.668092	21.009550	78.298139	21.992486	121.300175
	9.012885	21.965269	76.560100	20.239773	118.765143
	8.815860	22.124555	75.770083	21.514474	119.409111
	8.988257	20.213117	72.768016	19.602424	112.583557
	8.865117	21.965269	76.402096	19.921099	118.288464
	9.283795	21.646696	76.402096	21.833149	119.881941
	8.865117	23.558134	78.298139	22.948511	124.804784
	9.086770	21.965269	77.824128	21.673811	121.463208
	8.865117	22.602415	77.034110	22.311161	121.947687
	8.766604	23.398847	77.350118	22.789174	123.538139
	8.766604	22.602415	76.402096	21.833149	120.837660
	8.717348	22.761702	77.192114	25.497911	125.451727
	9.234539	21.965269	79.878174	21.673811	123.517254
	8.791232	23.239561	77.192114	21.673811	122.105486
	9.357679	22.602415	72.768016	19.602424	114.972854
	8.914373	21.646696	76.876107	22.311161	120.833964
	9.160654	20.850264	75.612079	20.558449	117.020791
	8.939001	21.487409	78.298139	21.992486	121.778034
	9.012885	22.124555	76.876107	21.514474	120.515136
	8.963629	21.168837	74.506055	19.921099	115.595990
	9.037514	22.283842	76.560100	24.860561	123.704503
	9.160654	23.398847	75.296072	21.036461	119.731381
	8.914373	24.195280	82.564233	23.904536	130.664049
	8.791232	21.965269	76.244093	21.195799	119.405160
	8.717348	20.690977	74.348051	20.239773	115.278802
	8.988257	22.761702	75.296072	20.717786	118.775560
	8.963629	26.903150	81.932219	26.453936	135.289306
	9.234539	21.009550	77.192114	20.558449	118.760113
	8.741976	23.239561	77.508121	21.514474	122.262156
	8.914373	20.372404	74.822062	24.382548	119.577014
	8.963629	23.558134	78.140135	22.789174	124.487443
	9.185282	22.443129	77.350118	22.789174	122.582420
	9.136026	23.876707	75.612079	21.355136	120.843922
	9.185282	22.283842	78.298139	23.745199	124.327179
	9.111398	23.558134	79.562167	23.267186	126.387487
	8.865117	22.920988	77.508121	21.833149	122.262258
	9.012885	22.920988	75.612079	20.558449	119.091515
	8.939001	23.558134	78.614146	25.019899	127.192178
	9.012885	22.443129	77.192114	21.195799	120.831041
	8.791232	21.487409	80.668191	21.514474	123.670074
	8.791232	23.398847	76.718104	21.514474	121.631425
	8.717348	24.354567	78.140135	24.541886	127.036588
	8.988257	20.372404	75.612079	20.717786	116.702269
	9.062142	25.469572	79.878174	24.382548	129.730294
	9.160654	20.213117	77.666125	20.558449	118.437691
	9.012885	22.761702	77.824128	22.789174	123.375003
	9.111398	22.443129	76.244093	24.063874	122.751095
	8.840489	25.947432	78.772149	21.514474	126.234054
	8.471067	22.920988	78.614146	23.745199	125.280332
	8.914373	23.080275	79.720170	22.789174	125.589618
	9.037514	23.558134	77.982132	23.267186	124.807452
	8.889745	23.080275	77.350118	23.426524	123.856916
	8.840489	23.080275	77.824128	22.470499	123.374901
	9.111398	19.098112	73.716037	17.690373	110.504523
	9.234539	24.195280	77.982132	21.514474	123.691885
	9.431564	17.664534	74.506055	20.717786	112.888374
	9.185282	24.035993	77.034110	21.673811	122.743915
	9.012885	21.646696	77.034110	22.151823	120.832630
	8.963629	23.558134	76.718104	22.151823	122.428061
	9.357679	21.646696	77.508121	22.789174	121.943991
	8.988257	23.398847	78.298139	22.948511	124.645497
	8.865117	22.920988	79.878174	22.948511	125.747673
	8.914373	22.283842	76.876107	20.717786	119.877735
	8.865117	22.124555	76.876107	24.541886	123.542549
	8.865117	21.965269	76.876107	22.948511	121.789887
	8.815860	24.832426	76.876107	21.195799	122.904332
	8.914373	17.983107	77.350118	18.487061	113.820285
	8.914373	22.761702	77.824128	22.311161	122.896991
	9.160654	18.620252	76.244093	19.602424	114.466769
	8.963629	24.673140	77.034110	21.833149	123.540399
	8.988257	19.894544	76.086090	20.877123	116.857758
	8.741976	23.558134	78.772149	23.585861	125.916144
	8.939001	19.894544	76.402096	23.585861	119.882502
	8.741976	24.035993	78.614146	22.470499	125.120638
	8.988257	19.575972	74.980065	19.761761	114.317798
	8.791232	21.805983	75.612079	21.673811	119.091872
	8.643463	23.080275	76.086090	21.992486	121.158850
	8.791232	21.328123	77.666125	22.470499	121.464746
	8.594207	24.673140	80.668191	24.382548	129.723879
	8.741976	21.168837	76.244093	21.036461	118.449390
	8.692720	24.673140	77.666125	22.789174	125.128438
	9.062142	20.531690	76.876107	24.223211	121.631009
	8.939001	25.150999	80.352184	24.382548	129.885732
	9.259167	18.938826	74.980065	19.443086	113.361976
	8.840489	21.805983	76.876107	21.673811	120.355901
	9.086770	21.009550	76.086090	22.151823	119.247463
	8.865117	23.080275	76.718104	22.948511	122.746889
	8.963629	24.195280	77.192114	21.514474	122.901868
	8.741976	21.009550	79.246160	21.673811	121.929521
	9.012885	22.283842	77.350118	23.267186	122.901146
	8.569579	21.965269	76.402096	23.426524	121.793889
	8.717348	23.876707	77.034110	21.195799	122.106616
	8.741976	21.487409	77.192114	21.992486	120.672010
	8.840489	24.035993	82.090223	23.585861	129.712077
	8.939001	21.009550	76.086090	20.877123	117.972763
	8.741976	21.965269	75.928086	21.195799	119.089154
	8.766604	20.372404	76.560100	19.602424	116.534928
	8.692720	22.124555	76.718104	21.833149	120.675808
	8.988257	23.080275	78.614146	23.585861	125.280281
	8.668092	21.168837	77.508121	19.761761	118.438718
	8.840489	23.080275	78.140135	23.267186	124.487595
	8.766604	23.239561	78.140135	22.789174	124.168869
	9.012885	24.832426	77.350118	22.629836	124.812380
	8.914373	18.779539	74.032044	19.761761	112.573344
	8.717348	22.602415	77.666125	21.673811	121.942351
	9.037514	19.735258	77.508121	20.080436	117.323815
	8.766604	27.381010	80.510188	26.931949	134.823146
	8.988257	21.168837	76.244093	23.267186	120.680115
	8.741976	21.965269	75.928086	19.921099	117.814454
	8.865117	22.124555	74.980065	20.080436	117.185057
	8.815860	23.876707	82.406230	25.179236	131.462173
	8.988257	20.850264	76.718104	21.355136	118.923503
	8.495695	20.850264	75.454076	21.673811	117.978150
	9.062142	23.558134	76.876107	21.673811	122.108052
	8.668092	20.213117	76.244093	19.602424	116.059634
	8.791232	22.602415	79.246160	23.267186	125.115761
	8.668092	22.443129	77.508121	23.426524	123.377773
	8.815860	21.328123	76.086090	20.239773	117.653986
	8.939001	20.053831	75.612079	20.558449	116.224358
	8.865117	23.239561	77.824128	22.470499	123.534188
	8.988257	22.761702	79.878174	21.673811	124.313686
	8.594207	21.646696	77.824128	21.992486	121.463310
	8.889745	19.098112	74.348051	18.965074	112.411237
	8.692720	22.602415	78.298139	22.311161	123.211714
	8.865117	24.195280	77.982132	25.816586	127.993998
	8.569579	22.443129	79.088156	22.470499	124.001783
	8.471067	21.965269	77.824128	22.151823	121.941221
	8.717348	20.372404	77.982132	22.470499	120.825034
	8.815860	22.602415	77.350118	22.151823	122.104356
	8.988257	19.894544	74.506055	20.558449	114.959047
	8.889745	23.717420	77.982132	22.789174	124.488726
	9.382307	21.328123	75.612079	19.602424	116.542625
	9.037514	21.009550	78.298139	23.107848	122.415537
	9.160654	20.531690	77.034110	20.558449	118.124249
	8.766604	22.124555	75.928086	21.514474	119.567115
	8.840489	25.469572	78.772149	23.904536	128.146257
	8.766604	23.717420	80.194181	23.745199	127.656800
	8.618835	23.717420	82.406230	24.063874	130.187524
	8.791232	21.805983	77.508121	21.833149	121.147252
	8.791232	22.283842	77.034110	22.151823	121.469776
	8.668092	22.124555	76.876107	21.833149	120.833811
	8.692720	21.646696	76.718104	21.833149	120.197948
	9.086770	23.239561	78.456142	22.629836	124.325539
	8.889745	20.213117	76.244093	19.921099	116.378309
	8.766604	21.487409	75.612079	21.514474	118.613962
	8.544951	23.239561	77.666125	23.107848	124.013534
	8.791232	23.558134	78.140135	23.107848	124.806118
	8.939001	22.920988	80.510188	22.948511	126.379687
	8.815860	24.354567	79.562167	23.267186	127.183919
	8.815860	22.602415	77.192114	20.877123	120.671653
	8.668092	21.805983	77.824128	23.904536	123.534647
	8.963629	21.965269	77.350118	20.717786	120.033173
	8.815860	21.009550	75.928086	20.080436	117.018072
	8.815860	23.398847	76.244093	20.399111	120.042051
	8.988257	22.124555	79.878174	22.948511	124.951240
	9.086770	19.575972	75.454076	20.239773	115.269821
	8.988257	21.487409	75.770083	21.195799	118.453291
	9.234539	24.513853	78.140135	22.470499	125.124487
	8.766604	22.283842	78.930153	24.541886	125.755881
	8.963629	20.213117	77.824128	21.833149	119.870394
	8.741976	22.920988	78.930153	22.470499	124.321639
	9.012885	22.761702	76.876107	22.311161	121.948970
	8.766604	22.124555	77.982132	21.992486	122.099173
	8.643463	22.602415	77.666125	21.833149	122.101688
	8.889745	22.443129	77.824128	21.036461	121.303718
	8.791232	21.646696	77.982132	20.877123	120.505951
	9.160654	19.416685	74.822062	19.602424	113.841170
	8.766604	22.761702	78.456142	24.701224	125.919067
	9.111398	24.035993	78.298139	23.107848	125.441981
	8.840489	26.425291	82.880240	25.179236	134.484767
	8.865117	20.053831	76.560100	20.239773	116.853705
	9.037514	24.354567	77.192114	22.789174	124.335854
	8.963629	23.239561	79.404163	23.107848	125.751572
	8.766604	23.558134	78.140135	22.311161	124.009430
	8.668092	24.035993	79.720170	22.151823	125.907987
	8.865117	25.947432	78.772149	21.992486	126.712067
	8.717348	24.673140	81.774216	27.250623	133.697979
	9.037514	22.761702	77.824128	21.673811	122.259641
	8.668092	22.283842	77.508121	20.877123	120.669087
	8.963629	22.283842	77.666125	20.558449	120.508415
	8.791232	23.876707	79.878174	22.311161	126.066042
	9.111398	23.398847	79.404163	22.311161	125.114171
	8.717348	26.425291	80.194181	23.267186	129.886658
	8.594207	22.920988	76.718104	21.992486	121.631578
	8.643463	23.558134	77.508121	22.789174	123.855429
	8.741976	23.717420	78.614146	23.904536	126.236102
	8.865117	22.920988	77.034110	19.124411	119.079510
	8.717348	24.195280	79.878174	23.426524	127.499977
	8.717348	21.965269	75.928086	20.877123	118.770479
	8.495695	23.080275	77.508121	21.514474	122.102869
	8.963629	24.673140	77.666125	21.036461	123.375725
	8.274041	22.761702	78.140135	20.558449	121.460285
	8.471067	26.266004	81.774216	25.497911	133.538131
	8.323298	23.398847	80.826194	23.585861	127.810903
	8.249413	24.832426	79.088156	20.877123	124.797706
	8.421810	24.991712	79.562167	23.267186	127.821065
	8.323298	26.903150	80.352184	23.904536	131.159871
	8.668092	29.133161	80.826194	22.311161	132.270517
	7.978504	29.929594	83.038244	25.657249	138.625086
	8.274041	30.566740	83.354251	24.382548	138.303539
	8.126273	33.752470	84.460275	24.860561	143.073306
	8.003132	40.601790	88.568366	29.003336	158.173492
	7.485941	42.194654	90.306405	30.118699	162.619757
	7.165776	45.061811	92.834461	27.728636	165.624908
	6.722469	50.477552	93.624478	30.118699	174.220729
	6.697841	50.158980	94.098489	31.074724	175.332192
	6.574700	53.185423	94.730503	31.074724	178.990649
	6.180650	53.663283	95.678523	30.278036	179.619842
	6.451560	57.167586	97.732569	30.437373	185.337528
	6.106766	54.459715	96.626545	29.481348	180.567608
	6.254535	53.026136	92.676457	29.003336	174.705929
	5.761972	54.778288	95.362517	31.712074	181.852878
	5.761972	51.911131	93.308471	26.453936	171.673538
	5.491063	50.796125	93.940485	27.409961	172.146572
	5.515691	49.043974	92.202447	26.931949	168.178369
	5.294037	50.158980	91.096422	27.728636	168.984037
	5.121641	44.902525	88.726370	24.541886	158.170781
	5.195525	43.309660	86.830328	22.470499	152.610486
	5.146269	42.194654	86.198314	23.107848	151.500816
	5.318666	38.690351	81.142202	20.558449	140.391002
	5.220153	36.778913	84.460275	20.558449	141.797637
	5.195525	36.301054	82.564233	19.921099	138.786385
	4.949244	34.389616	80.194181	18.805736	133.389533
	5.220153	32.637465	78.298139	17.212361	128.147964
	5.121641	30.088881	77.824128	16.734348	124.647357
	5.121641	33.115324	83.828261	19.761761	136.705346
	5.170897	28.018156	75.454076	14.344286	117.816518
	4.776847	26.743864	72.926020	15.459649	115.129532
	5.047756	27.221723	74.664058	18.487061	120.372843
	4.924616	27.062437	74.980065	14.184949	116.227451
	5.220153	28.018156	75.138069	13.547599	116.703823
	4.973872	26.743864	74.822062	14.662961	116.228887
	4.850731	25.469572	72.610012	13.228924	111.308508
	4.604450	27.699583	74.506055	14.503624	116.709261
	5.047756	27.381010	73.716037	13.228924	114.325971
	4.924616	30.407453	79.720170	14.981636	125.109260
	4.801475	30.566740	76.244093	15.459649	122.270481
	4.727590	34.230329	75.454076	18.965074	128.649479
	4.629078	34.867475	78.772149	17.371699	131.011323
	4.653706	34.708189	78.772149	15.778324	129.258661
	4.432053	36.301054	79.246160	15.937661	131.484874
	4.530565	36.938200	77.192114	14.184949	128.315262
	4.382797	39.327497	79.246160	17.371699	135.945356
	4.407425	38.690351	79.562167	15.300311	133.552829
	4.259656	43.628233	83.512254	19.443086	146.583573
	4.333540	42.672514	80.984198	18.965074	142.621785
	4.530565	40.920362	81.142202	16.575011	138.637575
	4.185772	41.716795	82.722237	17.053024	141.492055
	3.939490	42.513227	80.668191	16.734348	139.915767
	3.964118	40.123930	78.930153	15.937661	134.991743
	4.210400	39.327497	77.824128	14.184949	131.336574
	4.161143	41.238935	79.878174	15.300311	136.417420
	4.382797	38.371778	78.930153	10.998199	128.300129
	4.333540	40.442503	80.510188	18.327724	139.280414
	4.579822	38.053205	75.770083	15.778324	129.601611
	3.988747	40.601790	79.878174	14.662961	135.142924
	4.087259	38.371778	77.350118	13.706936	129.428832
	3.767093	37.893919	78.456142	14.025611	130.375672
	4.013375	39.486784	78.614146	15.140974	133.241903
	3.717837	38.849638	74.822062	12.750911	126.422611
	3.988747	36.938200	74.980065	11.794886	123.713151
	3.939490	37.416059	76.402096	11.635549	125.453704
	3.890234	39.168211	80.510188	14.025611	133.704010
	4.358168	36.460340	73.242027	11.157536	120.859903
	3.767093	38.849638	75.138069	11.316874	125.304580
	3.668581	37.575346	74.980065	11.954224	124.509634
	3.619325	39.008924	77.192114	13.547599	129.748637
	3.767093	41.876081	80.036177	15.300311	137.212570
	3.520812	38.849638	76.244093	12.272899	127.366629
	3.594696	40.283216	75.770083	12.432236	128.485535
	3.520812	42.513227	76.244093	12.113561	130.870881
	3.397671	40.283216	76.876107	15.459649	132.618972
	3.840978	36.778913	72.294006	10.679524	119.752443
	3.594696	40.442503	76.560100	12.272899	129.275501
	3.693209	39.327497	75.296072	9.723499	124.347068
	3.545440	41.876081	77.824128	13.547599	133.247808
	3.742465	39.646071	74.664058	11.954224	126.264352
	3.446928	42.035368	77.034110	13.706936	132.776415
	3.668581	39.486784	74.822062	10.679524	124.988369
	3.249903	40.920362	80.352184	14.025611	135.298158
	3.348415	40.442503	76.244093	14.981636	131.668232
	3.348415	41.398222	74.822062	11.794886	128.015169
	3.348415	40.601790	75.928086	11.954224	128.484099
	3.643953	38.690351	74.190048	10.838861	123.719260
	3.520812	40.442503	76.402096	11.635549	128.480148
	3.594696	42.991087	76.244093	12.113561	131.348741
	2.978993	40.283216	74.032044	11.316874	125.632134
	3.594696	43.468946	79.088156	14.025611	136.582714
