LabVIEW Measurement	
Writer_Version	2
Reader_Version	2
Separator	Tab
Decimal_Separator	.
Multi_Headings	No
X_Columns	No
Time_Pref	Absolute
Operator	lvuser
Date	2021/05/07
Time	13:24:12.463187212
***End_of_Header***	
	
Channels	5					
Samples	2000	2000	2000	2000	2000	
Date	2021/05/07	2021/05/07	2021/05/07	2021/05/07	2021/05/07	
Time	13:24:12.4631872620585883856	13:24:12.463187212	13:24:12.463187212	13:24:12.463187212	13:24:12.463187212	
Y_Unit_Label	Volts	Volts	Volts	Volts	Volts	
X_Dimension	Time	Time	Time	Time	Time	
X0	0.0000000000000000E+0	0.0000000000000000E+0	0.0000000000000000E+0	0.0000000000000000E+0	0.0000000000000000E+0	
Delta_X	0.001000	0.001000	0.001000	0.001000	0.001000	
***End_of_Header***						
X_Value	cisnienieKomoraGorna	sila1	sila2	sila3	sila1 1	Comment
	2.018496	-1.609133	43.537369	-6.688264	35.239972
	2.117009	-1.609133	45.117404	-9.715677	33.792594
	1.969240	-0.175555	47.645460	-8.122302	39.347604
	2.067752	-0.334841	48.751484	-9.078327	39.338317
	2.215521	-2.086993	45.275407	-9.875014	33.313401
	2.215521	0.620878	46.539435	-7.803627	39.356687
	2.461802	1.895170	45.907421	-8.440977	39.361615
	2.314034	0.620878	48.751484	-7.325614	42.046748
	2.412546	-2.883425	44.485390	-12.265077	29.336888
	2.240149	-1.927706	44.169383	-11.627727	30.613950
	2.314034	-3.201998	44.801397	-9.715677	31.883722
	2.117009	-1.131274	46.697439	-7.166277	38.399889
	2.166265	-2.883425	44.959400	-10.193689	31.882286
	1.895355	0.620878	46.381432	-8.600314	38.401995
	2.289405	-4.157717	43.221362	-11.787064	27.276581
	2.117009	0.143018	47.013446	-8.600314	38.556150
	2.387918	-0.175555	45.591414	-9.875014	35.540846
	2.067752	-1.768420	45.591414	-9.237664	34.585331
	2.289405	-1.609133	45.591414	-9.078327	34.903955
	2.166265	1.258024	48.119470	-9.078327	40.299168
	2.141637	-3.998431	45.117404	-11.149714	29.969259
	2.043124	-0.971987	45.749418	-8.918989	35.858442
	1.993868	-1.768420	46.065425	-6.528927	37.768079
	1.796843	2.213743	47.013446	-8.122302	41.104887
	2.043124	-0.971987	48.277474	-9.397001	37.908485
	2.018496	-0.016268	46.855442	-8.600314	38.238860
	1.919983	2.054456	46.065425	-8.440977	39.678905
	2.117009	-1.768420	45.749418	-9.237664	34.743334
	2.141637	-0.971987	46.381432	-9.237664	36.171781
	1.895355	0.461591	48.435477	-6.847602	42.049467
	1.993868	1.098737	47.329453	-9.078327	39.349864
	2.043124	-2.405565	45.275407	-9.397001	33.472840
	1.747587	0.780165	46.381432	-6.528927	40.632670
	1.944612	-0.494128	45.117404	-10.671702	33.951575
	1.747587	-1.449847	48.593481	-9.556339	37.587295
	1.969240	-1.927706	45.433411	-10.193689	33.312016
	1.919983	-0.334841	46.381432	-8.600314	37.446277
	2.166265	-1.131274	44.169383	-10.353027	32.685083
	1.944612	0.143018	47.803463	-7.803627	40.142855
	1.846099	-0.971987	45.749418	-9.237664	35.539767
	2.067752	2.850889	46.697439	-9.078327	40.470001
	2.289405	-2.564852	45.749418	-9.715677	33.468889
	2.018496	0.620878	50.963533	-6.847602	44.736810
	2.289405	-3.361285	45.591414	-8.759652	33.470478
	2.117009	1.576597	45.591414	-10.353027	36.814985
	2.437174	-0.812701	46.539435	-8.440977	37.285758
	2.215521	1.735883	49.225495	-6.847602	44.113777
	2.289405	1.576597	47.961467	-8.281639	41.256425
	1.747587	-1.449847	45.907421	-9.078327	35.379248
	1.993868	-0.494128	46.065425	-8.600314	36.970983
	1.796843	0.302305	47.803463	-8.122302	39.983467
	2.092380	1.735883	48.277474	-8.281639	41.731718
	2.043124	1.417310	51.595547	-5.891577	47.121281
	1.698330	1.895170	48.751484	-6.050914	44.595740
	2.166265	2.532316	45.275407	-8.759652	39.048072
	2.018496	-0.812701	46.539435	-8.759652	36.967083
	2.215521	-1.768420	45.275407	-10.512364	32.994624
	2.043124	-1.290560	47.013446	-9.078327	36.644559
	2.461802	-0.494128	44.643393	-10.353027	33.796239
	2.117009	-0.812701	45.433411	-9.875014	34.745696
	2.363290	-0.494128	46.223428	-9.397001	36.332299
	2.117009	3.169462	47.645460	-8.600314	42.214608
	2.412546	-2.724139	45.117404	-9.237664	33.155601
	1.993868	2.213743	48.277474	-5.572902	44.918315
	2.363290	-3.042711	45.275407	-11.468389	30.764307
	1.821471	0.939451	47.013446	-8.759652	39.193245
	2.437174	-2.086993	45.749418	-9.397001	34.265424
	1.772215	1.735883	47.329453	-7.166277	41.899060
	2.240149	2.213743	46.855442	-7.803627	41.265559
	2.387918	1.417310	48.751484	-7.166277	43.002518
	2.486431	-1.290560	47.013446	-10.034352	35.688534
	2.978993	0.461591	48.277474	-7.803627	40.935439
	4.284284	2.373029	47.329453	-5.413564	44.288918
	4.530565	2.850889	49.857509	-4.616877	48.091521
	6.968750	4.125181	50.647526	-4.138864	50.633843
	10.244292	9.063062	53.175582	-1.908139	60.330506
	14.677356	8.903776	56.019645	1.756624	66.680045
	19.800008	13.363798	58.231694	4.306024	75.901516
	24.971916	16.868101	62.813796	8.926811	88.608708
	29.848287	25.150999	67.395897	13.866274	106.413170
	34.527634	27.381010	73.084023	18.327724	118.792757
	38.344995	36.301054	77.824128	23.426524	137.551705
	41.398885	44.583952	83.196247	32.349424	160.129623
	47.211126	46.654677	90.622412	38.404249	175.681337
	48.294764	56.849013	98.996597	43.662386	199.507996
	53.614444	61.946180	106.896772	51.947936	220.790889
	61.002887	73.733382	117.008996	62.623548	253.365926
	68.415960	78.352690	121.117087	68.678374	268.148150
	77.134326	93.803481	136.917437	83.337424	314.058341
	85.089221	100.174941	143.395581	89.232911	332.803432
	94.275524	104.475676	151.453759	95.765749	351.695184
	101.146782	115.625731	162.988015	108.512749	387.126494
	107.673246	124.067916	172.784232	120.463061	417.315208
	113.904173	133.625106	182.422445	130.660661	446.708212
	118.090963	141.270858	192.850676	139.583561	473.705095
	119.026833	151.146620	204.700939	153.445924	509.293483
	122.622547	162.137389	214.971166	165.236899	542.345454
	126.489171	168.827422	226.189415	179.258599	574.275435
	130.380424	181.570342	239.619712	193.439636	614.629690
	134.370189	192.720397	254.788048	209.214049	656.722494
	139.123429	207.852615	269.482374	224.988461	702.323449
	143.113196	220.914107	286.072741	242.037574	749.024422
	147.792552	237.320617	303.769133	263.070124	804.159874
	150.895705	251.656402	318.463459	277.729174	847.849034
	152.792076	272.363647	342.637994	301.311124	916.312765
	152.792076	288.292297	356.700306	318.997586	963.990188
	152.890588	302.946655	372.816663	335.090673	1010.853991
	151.314384	318.397446	390.513055	352.777136	1061.687636
	148.531398	333.051804	404.733370	367.754861	1105.540034
	144.172208	345.794724	418.637678	381.139211	1145.571612
	140.108557	357.263351	428.275891	391.177474	1176.716716
	135.576970	368.254120	441.706189	403.446461	1213.406770
	131.537948	370.802704	445.656276	405.199174	1221.658154
	127.745208	377.970596	454.504472	416.034124	1248.509192
	124.445032	379.085602	455.294490	413.962736	1248.342828
	121.144856	381.634186	457.032528	415.396774	1254.063488
	116.859554	379.085602	456.242511	413.325386	1248.653499
	116.317734	383.386338	457.190532	413.803399	1254.380268
	110.998049	374.307007	452.766434	408.545261	1235.618702
	103.781996	373.829148	450.712388	406.473874	1231.015409
	96.368918	364.112671	441.390182	397.391636	1202.894489
	88.143112	361.245514	440.916171	393.248861	1195.410546
	80.976318	353.759049	431.909972	387.194036	1172.863056
	73.784897	351.210465	425.747835	383.688611	1160.646911
	67.923397	343.564712	418.163667	376.199749	1137.928128
	62.111154	333.211090	409.315471	364.408773	1106.935335
	57.604203	324.131759	400.783282	355.007861	1079.922903
	52.456921	317.601013	390.355051	345.288274	1053.244338
	51.939730	305.813812	380.084824	336.365374	1022.264009
	45.758066	297.212341	369.182582	324.415061	990.809984
	40.118221	287.018005	360.334386	315.173486	962.525877
	33.911930	278.257248	348.958134	301.470461	928.685843
	27.533243	265.355041	336.001847	289.201474	890.558362
	21.819515	254.204986	321.149518	278.366524	853.721027
	15.785622	242.258499	310.721287	265.300849	818.280634
	11.180161	230.312011	298.555018	249.685774	778.552802
	7.387429	217.728378	285.914738	236.142086	739.785201
	3.840978	206.419036	271.536419	222.439061	700.394516
	1.501305	194.153976	256.526087	206.983324	657.663386
	0.984115	179.977477	244.517821	192.961624	617.456921
	-0.912252	169.305282	232.509555	179.895949	581.710785
	-2.020517	157.836654	217.499222	164.599549	539.935424
	-2.857874	143.660155	205.016946	151.374536	500.051637
	-2.143658	136.014403	194.430711	141.654949	472.100063
	0.688577	125.182921	184.318487	131.138674	440.640082
	2.658827	115.944304	173.100239	116.638961	405.683504
	4.308912	104.475676	161.565983	105.166661	371.208320
	4.973872	98.422789	153.349801	96.562436	348.335026
	4.284284	92.369902	146.239644	88.595561	327.205107
	2.855852	81.856993	138.813479	80.310011	300.980483
	2.560315	76.122679	130.281290	72.502473	278.906443
	0.516180	69.591933	121.591098	64.057586	255.240616
	-0.665970	66.087630	116.376982	58.002761	240.467373
	-0.567458	55.893293	108.634811	52.744624	217.272728
	-0.641342	52.866850	105.316737	46.530461	204.714048
	0.737833	46.654677	98.996597	39.838286	185.489560
	1.919983	42.991087	94.414496	35.536174	172.941756
	3.176018	37.256773	88.252359	30.118699	155.627830
	3.496184	37.416059	87.146335	29.003336	153.565730
	3.200646	31.681745	81.142202	22.151823	134.975771
	1.870727	30.248167	80.826194	22.151823	133.226185
	1.525933	24.673140	73.558034	15.618986	113.850159
	1.008743	24.991712	72.452009	15.459649	112.903370
	0.639321	17.823820	67.869908	12.591574	98.285301
	0.245271	21.009550	71.819995	14.662961	107.492506
	0.663949	13.363798	62.497789	5.899399	81.760985
	1.402793	17.027387	62.813796	7.492774	87.333956
	2.166265	10.496641	58.705705	4.146686	73.349032
	2.806596	12.885939	60.917754	5.102711	78.906403
	2.978993	10.815214	58.705705	2.712649	72.233567
	2.092380	8.585203	56.809663	1.915961	67.310827
	2.264777	5.877333	52.859575	-1.111452	57.625456
	1.575190	6.992338	53.649593	-0.474102	60.167829
	1.525933	5.718046	51.753551	0.481924	57.953520
	0.860974	3.806608	53.175582	-1.748802	55.233389
	1.033371	2.054456	49.225495	-4.138864	47.141087
	1.181140	3.010175	48.435477	-2.864164	48.581489
	1.722958	1.258024	47.013446	-3.820189	44.451281
	1.649074	1.735883	48.277474	-3.660852	46.352506
	1.821471	1.576597	49.383498	-3.023502	47.936594
	2.117009	3.010175	46.539435	-4.616877	44.932734
	2.387918	-0.812701	44.959400	-5.732239	38.414461
	2.067752	-0.812701	44.485390	-5.891577	37.781113
	1.919983	-0.016268	44.011379	-3.501514	40.493597
	1.525933	0.143018	43.379365	-3.182839	40.339545
	1.624446	-0.971987	42.431344	-6.369589	35.089768
	1.525933	-0.812701	41.009313	-6.210252	33.986361
	1.722958	1.098737	45.275407	-4.935552	41.438593
	1.772215	1.258024	42.115337	-4.616877	38.756485
	1.649074	1.895170	40.535302	-4.457539	37.972933
	1.649074	1.895170	39.745285	-6.050914	35.589541
	1.698330	0.620878	41.799330	-5.572902	36.847307
	1.846099	1.417310	41.957334	-6.528927	36.845718
	1.722958	3.488035	41.799330	-1.589464	43.697901
	1.796843	3.647321	38.955267	-6.369589	36.233000
	1.599818	2.373029	41.957334	-5.254227	39.076137
	1.772215	-0.175555	38.955267	-8.600314	30.179399
	1.624446	1.735883	43.695372	-7.006939	38.424317
	1.870727	1.098737	40.377299	-7.962964	33.513072
	1.796843	2.213743	39.903288	-7.166277	34.950755
	2.043124	0.939451	40.693306	-6.847602	34.785155
	1.796843	3.488035	42.431344	-8.759652	37.159728
	2.092380	-0.334841	42.431344	-8.759652	33.336852
	1.673702	3.169462	43.695372	-5.732239	41.132595
	1.969240	1.895170	42.431344	-8.281639	36.044875
	1.747587	1.258024	42.905355	-8.281639	35.881740
	2.067752	0.143018	42.905355	-8.918989	34.129384
	1.255024	3.169462	44.169383	-6.210252	41.128593
	1.501305	4.125181	46.381432	-5.254227	45.252386
	1.747587	2.213743	45.275407	-7.325614	40.163536
	1.919983	0.620878	45.275407	-8.600314	37.295971
	1.944612	2.373029	45.117404	-8.600314	38.890119
	2.240149	-0.334841	45.591414	-8.281639	36.974934
	1.821471	-0.334841	44.327386	-6.369589	37.622956
	1.550562	0.302305	44.643393	-8.759652	36.186047
	1.919983	2.054456	44.485390	-9.715677	36.824170
	1.722958	-2.564852	43.853376	-10.353027	30.935497
	1.599818	-0.653414	43.853376	-9.875014	33.324948
	1.328908	-0.175555	46.381432	-8.440977	37.764901
	1.673702	-3.042711	43.379365	-11.468389	28.868265
	1.870727	-0.494128	47.803463	-10.034352	37.274984
	1.747587	-2.405565	44.327386	-12.105739	29.816082
	1.501305	-0.016268	44.011379	-9.237664	34.757447
	1.895355	-2.246279	45.749418	-8.281639	35.221500
	1.796843	-1.768420	45.749418	-11.946402	32.034597
	1.796843	-0.812701	46.855442	-10.034352	36.008390
	1.796843	-0.971987	47.487456	-8.600314	37.915155
	1.919983	-2.724139	44.011379	-10.990377	30.296864
	1.550562	-3.839144	43.537369	-11.787064	27.911161
	2.117009	-3.520571	43.695372	-12.105739	28.069062
	1.698330	-2.246279	46.697439	-10.193689	34.257471
	1.673702	-4.317003	44.327386	-12.424414	27.585969
	1.895355	-4.476290	42.273341	-11.309052	26.487999
	1.919983	-6.228441	42.115337	-11.149714	24.737182
	1.796843	-3.042711	45.749418	-10.990377	31.716330
	1.919983	-4.476290	45.749418	-11.946402	29.326726
	1.796843	0.780165	46.539435	-9.397001	37.922598
	2.117009	-4.954149	44.327386	-10.512364	28.860873
	1.722958	-2.564852	45.433411	-10.353027	32.515532
	1.895355	-3.839144	46.381432	-10.193689	32.348599
	1.476677	-1.290560	49.225495	-9.556339	38.378596
	1.969240	-5.591295	44.169383	-13.858452	24.719636
	1.624446	-1.768420	45.591414	-8.759652	35.063343
	1.846099	-2.564852	45.275407	-8.600314	34.110241
	1.599818	-1.609133	48.593481	-10.193689	36.790659
	1.722958	-4.157717	46.539435	-11.149714	31.232004
	1.698330	-1.131274	47.329453	-9.397001	36.801178
	1.772215	-3.042711	47.645460	-8.440977	36.161772
	1.747587	-3.042711	47.645460	-10.353027	34.249722
	2.240149	-3.042711	47.487456	-9.397001	35.047743
	1.722958	-1.609133	45.117404	-10.353027	33.155244
	1.993868	-2.883425	47.803463	-9.397001	35.523037
	1.722958	-1.768420	47.961467	-7.962964	38.230083
	1.993868	-6.547015	45.591414	-9.397001	29.647398
	1.821471	-3.201998	47.013446	-10.193689	33.617759
	1.649074	-2.724139	48.119470	-9.078327	36.317005
	1.599818	-2.246279	47.803463	-9.237664	36.319520
	1.649074	1.098737	47.171449	-8.440977	39.829210
	1.895355	-1.290560	49.857509	-7.484952	41.081997
	1.772215	-0.494128	48.909488	-8.440977	39.974384
	1.846099	-1.609133	47.171449	-8.600314	36.962002
	1.722958	-1.927706	47.645460	-8.440977	37.276777
	1.821471	-1.609133	47.961467	-8.440977	37.911357
	1.624446	-2.405565	50.331519	-8.122302	39.803652
	2.092380	-1.609133	46.223428	-12.265077	32.349219
	1.649074	-2.086993	45.749418	-9.078327	34.584099
	1.575190	-2.246279	45.907421	-9.715677	33.945466
	1.698330	-0.016268	47.487456	-8.600314	38.870874
	1.649074	-2.086993	49.541502	-7.962964	39.491545
	1.624446	-1.290560	47.487456	-8.759652	37.437245
	1.550562	-2.405565	46.065425	-9.875014	33.784845
	1.550562	0.620878	47.013446	-9.556339	38.077985
	1.870727	-3.042711	46.539435	-8.600314	34.896410
	1.673702	-2.883425	47.487456	-8.122302	36.481730
	2.018496	-4.794863	44.801397	-11.627727	28.378807
	1.673702	-0.812701	45.117404	-9.078327	35.226377
	2.264777	-3.839144	44.169383	-10.831039	29.499200
	1.796843	-1.290560	46.855442	-9.237664	36.327218
	1.969240	-0.016268	47.487456	-9.556339	37.914849
	1.870727	-0.334841	49.067491	-7.006939	41.725711
	1.821471	0.302305	48.277474	-7.484952	41.094827
	1.673702	-0.016268	47.961467	-9.397001	38.548197
	2.117009	-4.157717	44.959400	-10.034352	30.767332
	1.895355	-0.175555	46.697439	-6.688264	39.833620
	1.821471	-2.564852	45.275407	-11.309052	31.401504
	1.821471	1.895170	47.329453	-8.440977	40.783646
	1.772215	-2.405565	48.751484	-9.397001	36.948917
	1.698330	-0.334841	47.171449	-8.440977	38.395632
	1.919983	1.258024	45.749418	-7.803627	39.203815
	1.575190	-2.246279	45.433411	-9.556339	33.630793
	1.772215	1.258024	48.751484	-7.484952	42.524557
	1.649074	-0.494128	48.119470	-9.397001	38.228341
	1.846099	1.417310	47.013446	-7.644289	40.786467
	1.821471	-2.405565	44.643393	-8.281639	33.956189
	1.575190	-0.494128	46.539435	-8.918989	37.126319
	1.747587	-2.246279	46.065425	-9.556339	34.262807
	1.698330	-0.494128	48.277474	-8.600314	39.183032
	1.747587	-1.768420	46.223428	-9.237664	35.217345
	1.722958	-0.494128	45.907421	-8.281639	37.131655
	2.190893	-1.290560	43.537369	-12.265077	29.981732
	1.846099	-1.449847	47.013446	-10.034352	35.529248
	2.240149	-2.405565	46.697439	-11.149714	33.142159
	1.993868	0.620878	47.645460	-5.732239	42.534099
	2.141637	-2.086993	45.275407	-8.600314	34.588101
	1.993868	0.620878	46.697439	-9.715677	37.602640
	2.067752	-1.927706	46.381432	-9.715677	34.738049
	1.870727	1.895170	48.277474	-8.281639	41.891005
	1.624446	0.461591	48.909488	-7.006939	42.364140
	1.772215	-0.812701	46.065425	-9.078327	36.174398
	2.437174	-0.334841	46.065425	-9.556339	36.174245
	1.649074	-1.131274	47.329453	-9.556339	36.641840
	1.821471	-0.334841	48.435477	-8.918989	39.181647
	1.772215	0.620878	47.961467	-7.644289	40.938056
	1.698330	2.213743	46.381432	-8.759652	39.835523
	1.698330	-1.449847	47.171449	-9.237664	36.483939
	1.673702	-0.812701	46.539435	-9.556339	36.170396
	1.919983	-0.971987	48.435477	-8.281639	39.181851
	1.796843	0.302305	45.591414	-9.078327	36.815393
	2.018496	-1.131274	45.433411	-9.875014	34.427123
	1.846099	-1.768420	44.327386	-10.831039	31.727928
	1.698330	-1.609133	43.537369	-13.539777	28.388459
	1.821471	0.302305	48.593481	-7.962964	40.932822
	1.846099	-1.609133	46.381432	-7.166277	37.606022
	1.673702	-0.016268	48.277474	-7.166277	41.094929
	1.846099	-2.086993	47.171449	-11.309052	33.775405
	1.673702	1.258024	48.909488	-8.122302	42.045210
	1.919983	-2.883425	43.537369	-11.468389	29.185555
	1.649074	1.258024	47.329453	-8.759652	39.827825
	2.166265	-1.609133	46.539435	-9.556339	35.373963
	2.018496	0.939451	50.173516	-8.281639	42.831328
	1.747587	-0.016268	47.961467	-10.353027	37.592172
	1.944612	1.258024	47.171449	-7.644289	40.785184
	2.190893	-3.679858	44.011379	-10.512364	29.819158
	1.722958	0.302305	47.645460	-9.237664	38.710101
	1.821471	0.620878	46.855442	-10.671702	36.804619
	1.624446	-2.086993	46.539435	-9.715677	34.736766
	1.944612	-1.290560	45.433411	-9.556339	34.586512
	1.747587	-0.971987	47.329453	-8.759652	37.597814
	1.796843	1.258024	47.961467	-8.122302	41.097189
	1.796843	-0.494128	50.331519	-10.353027	39.484365
	1.747587	-1.290560	47.013446	-10.353027	35.369859
	1.821471	3.806608	45.907421	-7.484952	42.229078
	1.870727	-1.768420	46.223428	-6.050914	38.404095
	1.575190	-0.016268	47.803463	-8.918989	38.868206
	1.846099	-0.334841	49.383498	-8.759652	40.289006
	1.575190	-0.494128	47.171449	-9.715677	36.961645
	1.919983	1.735883	48.751484	-7.006939	43.480429
	1.747587	1.098737	49.699505	-7.644289	43.153954
	1.722958	1.258024	48.277474	-8.600314	40.935184
	1.870727	-0.653414	46.065425	-9.078327	36.333684
	1.772215	-1.290560	46.381432	-11.309052	33.781820
	1.698330	-1.449847	45.433411	-11.149714	32.833850
	1.919983	0.620878	51.437544	-6.050914	46.007508
	1.870727	-1.768420	45.749418	-9.875014	34.105984
	1.624446	0.302305	47.803463	-9.078327	39.027442
	1.821471	2.532316	47.329453	-9.237664	40.624105
	1.673702	-1.290560	46.539435	-8.918989	36.329886
	1.895355	-1.449847	47.171449	-10.512364	35.209239
	1.796843	-1.449847	47.803463	-9.397001	36.956615
	1.969240	-0.494128	45.749418	-10.831039	34.424251
	1.673702	1.417310	49.067491	-8.281639	42.203163
	2.067752	-2.246279	45.117404	-10.193689	32.677436
	2.043124	2.213743	47.171449	-7.166277	42.218916
	1.846099	-2.724139	46.539435	-10.831039	32.984258
	1.698330	0.620878	49.225495	-8.759652	41.086721
	1.993868	-3.042711	45.433411	-11.149714	31.240985
	1.895355	0.939451	45.433411	-10.353027	36.019835
	2.166265	-2.724139	46.855442	-10.831039	33.300265
	1.944612	1.098737	48.435477	-8.918989	40.615226
	2.264777	-0.494128	43.853376	-12.743089	30.616159
	1.673702	-0.971987	47.487456	-10.193689	36.321780
	2.240149	0.302305	47.961467	-6.528927	41.734845
	1.846099	-0.334841	50.963533	-7.803627	42.825066
	1.969240	0.620878	47.961467	-10.990377	37.591968
	1.722958	0.939451	47.487456	-8.440977	39.985931
	1.944612	1.258024	48.909488	-7.644289	42.523223
	1.575190	4.603041	49.857509	-7.803627	46.656923
	2.018496	-0.971987	50.173516	-8.600314	40.601215
	1.722958	-1.768420	45.591414	-11.627727	32.195268
	1.821471	-1.449847	47.171449	-9.875014	35.846589
	1.722958	0.143018	47.171449	-10.353027	36.961441
	1.919983	-0.812701	47.961467	-9.237664	37.911102
	1.673702	1.735883	49.699505	-5.254227	46.181162
	1.722958	0.780165	46.539435	-10.990377	36.329223
	1.476677	-0.971987	47.013446	-10.034352	36.007107
	1.722958	0.780165	47.171449	-8.759652	39.191962
	1.673702	-1.609133	47.487456	-9.715677	36.162647
	1.649074	1.576597	49.857509	-9.078327	42.355779
	1.673702	-1.449847	46.697439	-10.671702	34.575890
	1.649074	0.302305	47.171449	-10.512364	36.961390
	1.698330	1.895170	47.171449	-11.468389	37.598230
	1.599818	-0.971987	48.593481	-6.688264	40.933230
	1.846099	-0.175555	47.487456	-8.759652	38.552250
	1.550562	0.143018	48.435477	-9.875014	38.703482
	1.944612	1.735883	47.013446	-9.875014	38.874315
	1.772215	0.461591	47.329453	-8.600314	39.190730
	1.944612	-1.290560	46.539435	-11.309052	33.939824
	2.166265	3.328748	50.963533	-8.122302	46.169980
	2.141637	-2.724139	46.223428	-12.424414	31.074876
	1.919983	0.939451	47.645460	-10.512364	38.072547
	2.264777	-2.405565	45.591414	-10.034352	33.151497
	2.190893	5.080900	50.647526	-5.413564	50.314862
	2.215521	-0.971987	47.013446	-11.309052	34.732407
	2.018496	1.258024	48.751484	-9.715677	40.293832
	2.067752	2.532316	47.803463	-9.078327	41.257453
	1.722958	0.461591	51.753551	-8.440977	43.774166
	2.190893	0.143018	48.751484	-9.556339	39.338164
	1.919983	1.895170	47.961467	-7.803627	42.053010
	1.944612	1.098737	47.803463	-10.512364	38.389837
	1.821471	-0.494128	47.645460	-11.149714	36.001618
	2.018496	-0.016268	49.857509	-9.875014	39.966227
	1.796843	4.125181	49.067491	-6.210252	46.982421
	1.747587	-1.449847	47.171449	-8.440977	37.280626
	1.550562	2.373029	49.383498	-8.918989	42.837539
	1.796843	0.143018	48.909488	-8.918989	40.133517
	1.821471	2.373029	50.489523	-9.078327	43.784226
	2.043124	0.620878	49.383498	-8.918989	41.085387
	1.747587	2.054456	47.645460	-9.078327	40.621590
	1.993868	3.328748	47.803463	-9.237664	41.894548
	1.895355	0.302305	49.383498	-10.193689	39.492114
	2.141637	1.735883	50.963533	-8.600314	44.099103
	1.919983	1.098737	49.383498	-7.325614	43.156622
	2.067752	3.488035	48.909488	-10.193689	42.203834
	2.338662	2.054456	50.173516	-8.122302	44.105671
	2.683456	3.806608	51.595547	-6.369589	49.032566
	3.176018	2.532316	50.963533	-8.759652	44.736198
	3.373043	2.213743	50.489523	-7.325614	45.377652
	4.185772	2.213743	47.645460	-8.440977	41.418226
	4.530565	3.169462	49.383498	-7.962964	44.589996
	5.072384	5.080900	50.489523	-7.962964	47.607459
	5.515691	4.284467	53.017579	-3.660852	53.641195
	5.860485	3.806608	50.647526	-5.254227	49.199908
	6.697841	7.151625	52.385565	-3.660852	55.876338
	7.658338	3.328748	51.121537	-5.732239	48.718046
	7.682966	9.063062	55.387631	-1.589464	62.861230
	10.638342	8.266630	53.175582	-1.430127	60.012086
	11.106277	12.726652	56.493656	1.119274	70.339581
	12.830246	11.770933	57.915687	2.393974	72.080594
	13.396693	15.912382	63.445810	5.102711	84.460903
	15.120662	18.142393	60.917754	4.784036	83.844183
	15.563969	21.009550	65.025845	11.476211	97.511606
	15.884135	19.416685	62.971799	10.679524	93.068008
	16.992401	23.876707	68.027911	11.954224	103.858842
	17.706617	27.540297	70.713971	14.503624	112.757891
	19.258189	31.363172	75.612079	20.877123	127.852375
	20.932902	32.318891	74.822062	21.355136	128.496089
	23.198691	41.716795	82.406230	27.887974	152.010998
	24.479354	36.301054	81.458208	26.294599	144.053861
	26.080183	43.309660	90.148401	30.596711	164.054772
	27.631755	43.787519	89.042377	32.508761	165.338657
	29.355725	53.663283	95.362517	40.794311	189.820110
	30.661016	51.273985	97.100555	43.662386	192.036926
	30.537875	56.211866	101.840660	43.821724	201.874250
	32.754408	59.875456	107.054776	48.442511	215.372743
	34.133584	60.831175	107.844793	49.876549	218.552517
	35.832925	64.813338	111.952884	54.656674	231.422895
	36.990448	67.043349	114.480940	56.568724	238.093012
	38.936071	70.388365	117.483007	58.640111	246.511483
	39.527146	70.866225	123.487140	60.870836	255.224200
	41.127975	73.892668	125.225178	65.969636	265.087482
	41.743679	76.122679	126.015196	71.227774	273.365648
	42.999714	76.919111	129.649276	73.139824	279.708211
	43.812443	80.264128	133.599364	73.458498	287.321990
	44.181865	81.856993	138.023462	78.238624	298.119078
	44.206493	85.202010	137.391448	80.150674	302.744131
	44.994593	83.768431	139.445493	83.656098	306.870023
	45.314759	87.909880	144.027595	87.480199	319.417673
	46.102860	90.139891	145.133619	89.710923	324.984434
	46.398397	90.777037	147.661675	93.535024	331.973736
	46.496910	93.007048	151.137752	97.359124	341.503924
	46.693935	96.670637	155.245843	102.935936	354.852417
	47.063357	98.582076	157.615896	106.760036	362.958007
	46.841704	99.697081	159.827945	107.875399	367.400424
	46.693935	101.608519	160.301955	110.265461	372.175935
	46.620051	109.572844	165.200064	116.001611	390.774519
	46.570794	107.979979	169.308155	120.144386	397.432520
	46.299885	111.324996	171.994214	122.693786	406.012996
	45.610297	113.236434	174.364267	127.155236	414.755936
	44.969965	118.174315	174.838277	128.111261	421.123853
	43.812443	118.652175	177.998347	130.501324	427.151845
	42.457895	120.563613	179.420379	134.166086	434.150077
	41.103347	123.112197	184.318487	136.078136	443.508820
	39.798056	123.112197	183.370466	134.484761	440.967424
	37.581523	125.182921	182.422445	137.830849	445.436215
	35.783669	126.297926	184.160484	138.627536	449.085946
	35.340362	128.209364	185.108505	138.149524	451.467392
	34.010443	125.820067	185.898522	137.352836	449.071425
	32.114076	125.979354	183.686473	136.556149	446.221975
	30.488619	125.979354	182.580449	133.688074	442.247876
	28.469112	124.067916	182.264442	134.325423	440.657781
	26.942167	122.634337	180.210396	131.776024	434.620757
	25.119685	120.245040	179.736386	128.111261	428.092686
	23.691253	119.289321	174.206263	122.853124	416.348707
	22.139681	116.581450	173.416246	122.534449	412.532144
	20.711249	111.962142	167.412113	116.638961	396.013215
	18.962651	111.324996	166.780099	114.089561	392.194655
	18.568601	103.997817	162.988015	108.672086	375.657917
	17.238682	103.201384	159.827945	105.963349	368.992677
	16.401325	97.785643	154.613829	100.386536	352.786008
	15.268431	96.192778	153.349801	95.447074	344.989653
	13.938512	89.662031	146.081640	91.304299	327.047970
	12.485452	88.228453	143.237577	90.507611	321.973641
	11.451071	85.520583	138.813479	82.062724	306.396785
	10.195036	81.856993	138.339469	81.903386	302.099848
	9.456192	73.733382	132.019329	72.502473	278.255184
	8.569579	71.184798	127.437227	71.068436	269.690461
	7.756851	70.866225	122.697122	68.359698	261.923045
	7.658338	62.901900	117.799014	61.986199	242.687112
	7.412057	61.309034	115.428961	58.958786	235.696782
	6.894866	57.326872	110.530853	53.063299	220.921023
	6.279163	51.751844	106.422762	50.991911	209.166517
	5.811228	49.203260	101.682657	50.035886	200.921803
	5.170897	44.902525	98.048576	42.865699	185.816800
	4.998500	44.424665	95.204513	40.316299	179.945477
	4.432053	39.327497	95.204513	37.448224	171.980234
	4.333540	35.982481	89.042377	34.261474	159.286331
	3.816350	33.115324	83.038244	30.756049	146.909616
	3.939490	31.363172	83.670258	29.959361	144.992791
	3.471556	28.496015	80.352184	25.816586	134.664785
	3.545440	25.628858	78.614146	24.063874	128.306878
	3.299159	26.106718	75.454076	25.019899	126.580692
	3.520812	19.257399	69.923953	19.283748	108.465100
	3.200646	20.053831	70.239960	17.371699	107.665490
	3.176018	17.027387	67.553900	15.618986	100.200274
	3.126762	15.593809	66.289873	14.503624	96.387305
	3.323787	13.523085	64.551834	13.069586	91.144504
	3.003621	12.726652	61.391764	11.316874	85.435290
	3.668581	10.815214	59.179715	8.608136	78.603065
	3.225274	8.425916	58.547701	7.333436	74.307054
	3.299159	8.903776	58.073691	7.492774	74.470240
	3.102134	9.222349	57.599680	8.289461	75.111490
	3.496184	2.850889	54.123603	6.855424	63.829916
	3.619325	7.948057	59.179715	7.333436	74.461208
	3.791721	3.806608	56.019645	4.624699	64.450952
	3.619325	6.195905	52.859575	4.306024	63.361504
	3.717837	1.735883	53.965600	3.987349	59.688832
	4.013375	4.762327	56.177649	5.899399	66.839374
	4.087259	4.443754	58.389698	4.306024	67.139475
	4.161143	2.054456	55.861642	4.146686	62.062784
	3.988747	2.691602	54.913621	3.987349	61.592572
	4.333540	1.895170	55.703638	6.218074	63.816882
	4.407425	7.151625	58.705705	8.289461	74.146790
	4.505937	1.417310	58.389698	3.668674	63.475682
	4.407425	5.080900	59.337719	6.855424	71.274042
	4.358168	1.576597	55.545635	4.784036	61.906268
	3.816350	5.399473	60.285740	8.130124	73.815336
	4.382797	2.532316	57.757684	5.102711	65.392711
	3.643953	5.080900	61.233761	5.740061	72.054721
	3.865606	7.310911	59.495722	6.058736	72.865369
	3.570068	5.558759	59.495722	7.014761	72.069243
	4.161143	3.806608	56.651659	5.262049	65.720316
	3.717837	6.833052	59.179715	4.943374	70.956140
	3.964118	6.195905	60.127736	5.580724	71.904365
	3.742465	8.425916	59.811729	6.536749	74.774394
	3.816350	8.266630	58.547701	6.536749	73.351080
	3.594696	10.018782	57.441677	4.943374	72.403832
	3.717837	6.355192	57.757684	4.146686	68.259562
	3.102134	11.133787	61.707771	6.536749	79.378307
	3.299159	8.585203	57.757684	3.828011	70.170898
	2.806596	9.859495	58.231694	5.262049	73.353238
	2.855852	7.310911	55.071624	4.624699	67.007234
	3.028249	9.859495	58.231694	4.943374	73.034563
	3.077506	9.540922	57.441677	0.641261	67.623860
	2.905109	7.310911	55.861642	1.597286	64.769839
	3.151390	7.788771	55.229628	1.119274	64.137672
	3.225274	8.425916	54.913621	-0.155427	63.184111
	3.200646	5.080900	54.439610	-0.633439	58.887071
	3.077506	7.310911	52.859575	-1.270789	58.899697
	3.102134	7.629484	54.439610	-1.589464	60.479630
	3.323787	10.178068	54.913621	0.163249	65.254937
	3.151390	5.399473	53.175582	-0.314764	58.260291
	3.225274	8.266630	54.597614	-1.430127	61.434117
	3.373043	6.036619	53.965600	-2.864164	57.138055
	3.249903	7.788771	54.281607	-1.111452	60.958925
	3.693209	6.673765	52.859575	-2.067477	57.465864
	3.791721	6.036619	53.333586	-2.704827	56.665378
	4.087259	9.222349	53.807596	-2.386151	60.643794
	4.185772	5.877333	52.859575	-3.660852	55.076056
	4.210400	6.992338	52.701572	-2.864164	56.829746
	4.284284	5.080900	51.121537	-2.864164	53.338273
	4.702962	6.355192	51.279540	-2.704827	54.929906
	4.924616	5.399473	52.069558	-4.138864	53.330167
	4.850731	8.266630	54.123603	-1.908139	60.482094
	5.220153	5.877333	50.173516	-5.413564	50.637284
	5.318666	7.310911	54.913621	-0.952114	61.272417
	5.712716	5.558759	53.649593	-2.864164	56.344188
	5.367922	7.948057	53.807596	-1.589464	60.166189
	5.737344	3.169462	50.015512	-5.413564	47.771410
	5.934369	8.425916	55.071624	-1.589464	61.908077
	5.983625	5.718046	53.175582	-2.067477	56.826152
	6.648585	11.293074	58.389698	1.915961	71.598732
	6.771725	7.948057	56.493656	0.163249	64.604961
	6.623957	11.293074	57.125670	3.031324	71.450067
	6.944122	10.974500	57.441677	3.668674	72.084851
	7.091891	10.496641	58.863708	3.509336	72.869685
	7.707594	9.381636	60.127736	3.349999	72.859370
	7.436685	9.700209	57.757684	2.393974	69.851866
	7.707594	14.000944	59.653726	4.943374	78.598043
	7.732223	13.682371	62.181782	7.014761	82.878914
	8.224785	11.770933	61.233761	6.058736	79.063429
	8.618835	15.275236	63.919820	11.476211	90.671267
	8.594207	14.956663	65.025845	9.882836	89.865344
	8.766604	14.797377	63.603813	8.767474	87.168663
	9.062142	14.638090	63.761817	10.201511	88.601417
	9.456192	19.098112	66.763883	11.635549	97.497544
	9.850242	16.071669	68.975932	12.432236	97.479837
	9.924126	16.868101	66.605880	11.157536	94.631517
	10.047267	16.708815	67.237894	11.954224	95.900932
	9.973383	19.894544	69.291939	14.344286	103.530770
	10.318176	18.938826	70.397964	18.487061	107.823850
	10.712227	19.894544	71.187981	16.256336	107.338862
	10.638342	21.965269	71.503988	15.459649	108.928905
	11.180161	17.664534	69.291939	14.344286	101.300759
	11.771236	22.443129	73.242027	18.327724	114.012879
	11.574211	20.690977	72.926020	17.212361	110.829358
	11.524955	24.195280	74.664058	19.921099	118.780437
	11.820493	21.965269	74.032044	18.009048	114.006361
	11.451071	22.602415	74.348051	17.531036	114.481502
	12.017518	26.584578	77.192114	19.602424	123.379115
	11.869749	27.699583	79.562167	24.541886	131.803636
	12.214543	23.558134	74.506055	22.151823	120.216012
	12.066774	27.540297	78.930153	23.107848	129.578297
	12.510080	27.381010	79.246160	23.585861	130.213031
	12.633221	29.292448	83.038244	24.382548	136.713240
	13.396693	27.699583	79.878174	23.904536	131.482293
	12.830246	32.796751	80.826194	26.453936	140.076882
	13.248924	27.858870	79.088156	24.541886	131.488912
	12.978015	32.000318	83.038244	26.294599	141.333161
	13.593718	29.770307	83.196247	24.541886	137.508441
	13.347437	32.478178	83.986265	29.481348	145.945791
	13.322809	29.611021	81.142202	27.728636	138.481859
	13.421321	33.115324	83.354251	26.931949	143.401523
	13.495206	33.115324	83.512254	27.728636	144.356214
	13.421321	31.841032	85.566300	28.684661	146.091993
	13.766115	32.000318	84.302272	28.525324	144.827914
	14.135537	33.433897	83.196247	29.003336	145.633480
	13.864628	35.026762	85.092289	29.800024	149.919075
	13.938512	34.389616	86.356317	29.800024	150.545957
	14.160165	35.345335	88.410363	32.508761	156.264458
	13.987768	34.071043	85.250293	31.393399	150.714734
	14.086281	35.026762	86.514321	30.915386	152.456469
	14.037025	33.752470	84.934286	29.481348	148.168104
	13.766115	36.141768	88.568366	32.986774	157.696907
	13.987768	37.097487	87.778349	33.783461	158.659296
	13.839999	35.186048	86.988331	32.986774	155.161153
	13.938512	35.823194	87.146335	32.986774	155.956302
	14.234050	36.938200	88.884373	31.712074	157.534647
	13.889256	35.345335	88.252359	32.668099	156.265793
	13.790743	37.097487	87.146335	33.146111	157.389932
	13.913884	36.460340	88.094356	35.217499	159.772195
	13.618346	36.141768	87.936352	35.217499	159.295618
	13.692231	37.734632	90.622412	33.783461	162.140505
	13.445949	35.345335	86.830328	32.668099	154.843761
	13.692231	36.778913	85.408296	32.508761	154.695970
	13.445949	37.256773	89.042377	35.854849	162.153998
	13.569090	35.823194	87.778349	33.783461	157.385004
	13.101155	36.460340	90.938419	34.580149	161.978908
	12.928759	35.026762	87.620345	32.668099	155.315206
	13.002643	37.097487	87.620345	34.898823	159.616655
	13.101155	34.389616	86.040310	35.058161	155.488087
	12.805618	39.964643	89.990398	36.332861	166.287902
	12.657849	32.000318	86.356317	31.074724	149.431359
	12.460824	35.504621	87.304338	33.464786	156.273746
	12.460824	32.159605	83.828261	31.871411	147.859277
	12.362311	37.097487	88.568366	35.536174	161.202026
	12.239171	33.752470	86.514321	32.827436	153.094227
	11.894377	35.982481	91.254426	33.464786	160.701693
	12.091402	37.734632	89.042377	34.420811	161.197820
	11.721980	35.345335	85.566300	36.332861	157.244496
	11.869749	32.159605	84.302272	33.783461	150.245338
	11.377186	35.345335	87.620345	32.986774	155.952453
	11.574211	35.504621	88.094356	32.827436	156.426413
	10.835367	34.708189	87.146335	33.305449	155.159972
	10.884624	33.115324	84.934286	31.393399	149.443008
	10.564458	35.982481	86.356317	32.508761	154.847559
	10.515202	28.973875	83.038244	28.365986	140.378105
	10.441317	35.026762	86.198314	32.030749	153.255824
	10.293548	29.770307	82.880240	27.091286	139.741834
	9.924126	32.318891	83.670258	29.322011	145.311160
	9.800986	28.177443	82.722237	28.365986	139.265665
	9.702473	32.000318	83.828261	30.756049	146.584628
	9.653217	31.522459	81.774216	26.931949	140.228623
	9.209910	30.088881	82.722237	28.047311	140.858428
	9.333051	29.611021	81.774216	27.569299	138.954535
	8.988257	30.248167	83.512254	28.047311	141.807732
	9.308423	29.133161	81.774216	27.091286	137.998663
	8.939001	29.770307	80.194181	26.135261	136.099749
	8.939001	25.788145	77.982132	22.629836	126.400113
	8.840489	32.478178	81.458208	26.135261	140.071647
	8.544951	24.991712	82.722237	26.931949	134.645898
	8.323298	27.381010	78.930153	24.223211	130.534374
	8.347926	28.018156	78.298139	24.223211	130.539505
	8.372554	27.858870	78.140135	23.585861	129.584866
	8.175529	24.991712	77.192114	22.151823	124.335650
	8.175529	25.150999	77.192114	21.195799	123.538912
	8.274041	25.469572	75.928086	20.877123	122.274782
	8.101645	24.195280	75.296072	20.558449	120.049801
	7.855363	25.628858	76.718104	20.877123	123.224086
	8.003132	23.080275	73.874041	21.195799	118.150114
	7.756851	24.195280	75.928086	19.443086	119.566452
	7.806107	24.195280	76.086090	19.443086	119.724456
	7.806107	25.310286	74.348051	21.355136	121.013473
	7.732223	22.602415	71.977998	17.849711	112.430124
	7.609082	20.213117	72.452009	17.053024	109.718150
	7.904619	21.009550	73.716037	16.893686	111.619273
	7.707594	24.195280	74.980065	20.080436	119.255781
	8.077016	21.646696	72.452009	17.849711	111.948416
	7.855363	21.487409	73.084023	17.053024	111.624456
	8.027760	18.779539	70.871974	14.981636	104.633149
	7.953876	26.266004	73.558034	22.470499	122.294537
	8.077016	16.071669	68.817928	14.981636	99.871233
	7.953876	21.009550	71.503988	15.459649	107.973187
	8.397182	17.027387	70.239960	14.025611	101.292959
	7.904619	21.009550	72.294006	17.212361	110.515917
	8.274041	18.620252	68.975932	15.140974	102.737158
	7.978504	20.850264	71.661992	16.734348	109.246604
	8.323298	20.372404	71.187981	15.300311	106.860696
	8.003132	18.938826	72.294006	14.822299	106.055130
	8.323298	19.416685	71.503988	17.053024	107.973697
	7.904619	19.735258	70.555967	18.009048	108.300274
	8.175529	19.735258	70.555967	14.184949	104.476174
	8.126273	19.257399	70.871974	15.937661	106.067034
	8.397182	18.779539	74.032044	16.415674	109.227256
	8.150901	21.487409	72.136002	16.734348	110.357760
	8.126273	19.257399	71.661992	18.168386	109.087776
	8.150901	21.009550	72.768016	17.053024	110.830590
	8.347926	20.372404	72.768016	16.575011	109.715431
	8.200157	21.487409	73.242027	16.415674	111.145110
	8.446438	17.823820	71.819995	17.212361	106.856176
	8.224785	21.328123	71.819995	17.371699	110.519817
	8.298670	18.938826	71.661992	15.778324	106.379141
	8.397182	18.301680	70.239960	15.140974	103.682613
	8.717348	22.602415	78.140135	19.602424	120.344973
	8.421810	19.257399	71.661992	16.256336	107.175726
	8.323298	21.487409	71.029978	17.371699	109.889085
	8.274041	20.053831	72.136002	17.053024	109.242857
	8.421810	19.894544	72.294006	15.618986	107.807536
	8.471067	23.558134	74.664058	16.256336	114.478528
	8.397182	20.053831	73.716037	18.487061	112.256929
	8.372554	20.850264	71.819995	18.327724	110.997982
	8.495695	21.009550	74.190048	16.893686	112.093284
	8.569579	22.761702	74.032044	17.690373	114.484119
	8.372554	20.531690	71.661992	17.690373	109.884056
	8.840489	21.009550	72.926020	17.531036	111.466606
	8.618835	22.602415	72.452009	17.531036	112.585460
	8.741976	21.168837	75.612079	18.487061	115.267976
	8.741976	21.487409	74.506055	17.690373	113.683838
	8.741976	20.531690	71.187981	16.575011	108.294683
	8.692720	21.805983	73.558034	18.487061	113.851077
	8.889745	23.398847	74.822062	22.789174	121.010083
	8.840489	21.328123	75.296072	18.327724	114.951919
	8.963629	23.558134	74.348051	16.256336	114.162521
	8.840489	20.690977	72.136002	18.168386	110.995365
	8.840489	23.558134	74.980065	19.602424	118.140622
	9.234539	21.646696	73.558034	18.009048	113.213778
	9.259167	23.876707	76.718104	18.646399	119.241209
	9.160654	22.602415	75.612079	18.805736	117.020230
	9.357679	22.920988	74.664058	18.805736	116.390782
	9.136026	21.487409	73.874041	20.877123	116.238574
	9.136026	22.602415	74.664058	19.283748	116.550222
	9.086770	22.602415	76.244093	18.805736	117.652244
	9.185282	21.487409	74.032044	18.009048	113.528502
	9.160654	24.673140	73.558034	19.443086	117.674259
	9.480820	22.443129	74.980065	19.443086	116.866279
	9.086770	24.354567	76.560100	21.195799	122.110465
	9.653217	21.805983	76.560100	18.009048	116.375131
	9.406936	22.920988	76.402096	19.443086	118.766170
	9.751729	21.805983	72.452009	18.009048	112.267040
	9.653217	24.673140	76.244093	22.151823	123.069056
	9.948754	22.443129	75.138069	22.151823	119.733021
	9.702473	23.558134	77.508121	19.921099	120.987354
	9.998011	21.646696	74.980065	19.443086	116.069847
	9.727101	25.947432	77.034110	20.877123	123.858665
	9.850242	20.053831	74.506055	18.009048	112.568934
	9.973383	23.876707	76.718104	20.558449	121.153259
	10.145780	21.646696	74.032044	19.921099	115.599839
	9.899498	25.788145	77.666125	21.673811	125.128081
	10.096523	24.195280	76.876107	21.195799	122.267186
	9.998011	24.354567	77.508121	22.948511	124.811199
	10.244292	22.920988	74.980065	20.877123	118.778176
	10.219664	22.602415	77.508121	19.283748	119.394284
	10.047267	22.602415	76.560100	20.877123	120.039639
	9.800986	26.106718	78.614146	24.063874	128.784737
	9.973383	26.584578	79.562167	23.585861	129.732605
	9.850242	25.628858	79.878174	23.904536	129.411568
	10.145780	24.513853	77.666125	22.470499	124.650476
	9.653217	24.673140	77.508121	20.558449	122.739709
	9.899498	24.354567	78.456142	23.585861	126.396569
	9.653217	25.628858	78.140135	25.179236	128.948229
	9.850242	23.717420	77.824128	20.717786	122.259335
	9.727101	28.177443	80.036177	23.585861	131.799480
	9.998011	25.469572	80.352184	25.019899	130.841655
	9.727101	26.425291	79.088156	24.701224	130.214671
	9.677845	25.628858	79.878174	23.426524	128.933556
	9.899498	24.673140	78.614146	23.426524	126.713809
	9.579332	26.106718	78.614146	23.745199	128.466062
	9.406936	25.310286	78.298139	22.151823	125.760248
	9.727101	26.743864	79.246160	23.267186	129.257210
	9.579332	26.106718	82.090223	25.497911	133.694852
	9.850242	28.655302	82.090223	27.887974	138.633498
	9.727101	27.699583	77.982132	21.833149	127.514863
	9.554704	24.354567	78.140135	24.063874	126.558575
	10.121151	25.628858	79.246160	23.107848	127.982867
	9.776358	25.469572	80.826194	23.745199	130.040965
	9.825614	26.584578	79.246160	23.585861	129.416598
	9.751729	24.832426	77.982132	22.470499	125.285056
	9.850242	25.788145	79.246160	22.629836	127.664141
	9.628589	25.947432	79.720170	22.948511	128.616113
	9.579332	23.876707	77.666125	23.585861	125.128692
	9.505448	24.673140	78.298139	25.338573	128.309852
	9.160654	24.195280	77.192114	21.514474	122.901868
	9.579332	28.018156	79.720170	25.019899	132.758225
	9.111398	24.673140	78.772149	23.267186	126.712475
	9.899498	25.469572	80.826194	23.904536	130.200302
	9.185282	25.310286	78.772149	23.107848	127.190283
	9.259167	24.832426	78.140135	22.948511	125.921072
	9.136026	25.310286	78.930153	22.311161	126.551599
	9.136026	25.150999	79.246160	23.585861	127.983020
	9.357679	27.381010	78.614146	25.816586	131.811742
	9.308423	24.035993	78.614146	22.151823	124.801963
	9.283795	25.788145	78.614146	22.789174	127.191464
	9.136026	23.876707	77.666125	22.470499	124.013330
	9.357679	23.558134	77.824128	22.151823	123.534086
	9.259167	26.106718	79.088156	24.223211	129.418085
	9.751729	24.354567	78.614146	22.629836	125.598548
	9.209910	26.266004	79.088156	22.629836	127.983997
	9.480820	22.602415	77.982132	19.761761	120.346308
	9.111398	23.717420	77.508121	21.833149	123.058690
	9.406936	24.035993	75.612079	21.514474	121.162546
	9.308423	23.080275	77.666125	23.904536	124.650935
	9.259167	22.443129	76.876107	20.239773	119.559009
	9.136026	24.513853	80.194181	22.789174	127.497207
	9.579332	23.398847	77.034110	21.195799	121.628757
	8.914373	24.991712	77.824128	23.267186	126.083027
	9.431564	22.124555	75.454076	21.036461	118.615092
	8.840489	27.062437	79.088156	22.311161	128.461754
	9.185282	21.965269	78.298139	20.877123	121.140531
	9.037514	23.080275	77.508121	19.921099	120.509494
	9.111398	23.558134	77.350118	25.019899	125.928150
	8.988257	25.788145	78.614146	23.426524	127.828814
	9.136026	21.328123	76.560100	19.602424	117.490647
	9.012885	24.991712	77.982132	22.311161	125.285005
	9.062142	23.080275	76.560100	20.877123	120.517498
	8.963629	22.602415	75.454076	21.195799	119.252289
	9.062142	21.965269	75.138069	20.399111	117.502449
	8.840489	23.398847	77.350118	20.558449	121.307414
	9.160654	23.239561	76.718104	19.761761	119.719425
	9.062142	22.761702	77.508121	26.931949	127.201771
	9.333051	22.602415	75.454076	21.195799	119.252289
	8.791232	23.876707	77.350118	22.151823	123.378648
	9.209910	22.124555	74.822062	18.805736	115.752353
	9.012885	24.354567	77.508121	21.992486	123.855174
	9.037514	19.257399	73.558034	18.168386	110.983818
	9.037514	21.168837	76.718104	19.921099	117.808039
	9.185282	21.009550	73.558034	19.283748	113.851332
	8.815860	23.398847	77.508121	22.151823	123.058792
	9.062142	19.575972	74.822062	19.283748	113.681781
	8.889745	24.832426	78.140135	22.470499	125.443060
	9.185282	18.779539	73.558034	17.053024	109.390596
	9.086770	24.832426	77.824128	21.036461	123.693015
	9.357679	20.690977	77.034110	19.283748	117.008836
	9.062142	23.239561	76.876107	21.514474	121.630142
	9.382307	22.920988	73.084023	21.833149	117.838159
	9.185282	22.920988	77.350118	21.673811	121.944917
	8.815860	20.053831	75.138069	17.849711	113.041611
	9.037514	26.903150	80.826194	23.107848	130.837193
	9.333051	18.938826	74.822062	18.646399	112.407286
	9.160654	24.354567	77.508121	22.311161	124.173849
	9.456192	16.549528	72.768016	16.575011	105.892555
	9.012885	24.673140	77.824128	21.036461	123.533729
	9.234539	20.690977	74.190048	19.443086	114.324111
	9.136026	23.876707	77.350118	22.789174	124.015998
	9.308423	22.602415	74.506055	18.805736	115.914206
	9.086770	20.531690	78.614146	23.107848	122.253685
	9.185282	19.894544	74.980065	19.443086	114.317695
	8.840489	21.965269	75.138069	20.558449	117.661786
	8.963629	20.372404	74.980065	19.761761	115.114230
	9.037514	21.965269	77.034110	20.717786	119.717166
	9.062142	21.009550	77.034110	19.761761	117.805421
	8.988257	25.469572	77.824128	21.673811	124.967511
	9.209910	19.894544	74.822062	19.283748	114.000355
	8.840489	22.124555	75.928086	19.443086	117.495728
	9.259167	21.805983	76.086090	19.761761	117.653833
	8.815860	20.372404	74.032044	19.921099	114.325547
	8.914373	21.805983	76.560100	24.223211	122.589294
	8.815860	22.602415	77.192114	22.789174	122.583703
	8.988257	21.328123	79.404163	19.283748	120.016035
	8.963629	23.558134	77.508121	21.514474	122.580729
	9.062142	20.053831	74.190048	19.602424	113.846302
	8.717348	23.876707	74.980065	20.399111	119.255883
	9.012885	20.690977	75.928086	20.717786	117.336849
	9.160654	24.195280	76.876107	21.355136	122.426523
	9.111398	24.673140	77.192114	20.877123	122.742377
	8.914373	20.531690	76.086090	19.761761	116.379541
	9.086770	22.443129	78.614146	20.717786	121.775060
	8.766604	22.443129	78.298139	23.267186	124.008453
	9.062142	22.602415	75.770083	22.470499	120.842996
	9.111398	22.124555	76.402096	19.443086	117.969738
	9.185282	22.602415	77.508121	21.514474	121.625010
	9.209910	26.106718	79.404163	21.992486	127.503367
	9.209910	19.257399	76.402096	19.443086	115.102581
	9.283795	21.805983	74.506055	20.239773	116.551811
	9.062142	21.328123	75.454076	21.195799	117.977997
	9.209910	23.876707	79.088156	22.629836	125.594699
	9.086770	22.602415	78.298139	21.195799	122.096352
	9.111398	23.398847	78.140135	21.992486	123.531469
	9.283795	25.310286	77.350118	25.338573	127.998977
	8.988257	21.646696	78.140135	22.311161	122.097992
	9.209910	21.646696	76.876107	20.080436	118.603239
	9.111398	21.487409	74.032044	20.399111	115.918565
	9.259167	21.009550	77.034110	21.195799	119.239459
	9.111398	22.443129	76.402096	20.877123	119.722348
	9.086770	24.832426	81.142202	22.629836	128.604464
	9.160654	24.035993	78.772149	22.470499	125.278641
	9.160654	21.646696	74.664058	20.558449	116.869202
	9.160654	23.558134	76.560100	21.833149	121.951382
	9.185282	24.673140	77.192114	20.877123	122.742377
	8.889745	20.850264	75.612079	21.992486	118.454828
	8.988257	22.443129	77.192114	23.267186	122.902429
	9.111398	21.805983	74.664058	17.212361	113.682402
	9.259167	21.328123	78.772149	21.833149	121.933421
	9.160654	23.080275	77.508121	21.833149	122.421544
	9.357679	23.558134	78.140135	23.585861	125.284130
	9.185282	24.354567	77.350118	22.151823	123.856508
	9.086770	22.283842	77.666125	22.151823	122.101790
	9.234539	21.009550	74.822062	19.761761	115.593373
	9.333051	25.469572	79.878174	21.833149	127.180894
	9.283795	20.531690	76.244093	19.443086	116.218869
	9.283795	22.443129	77.666125	22.311161	122.420414
	9.308423	20.213117	75.454076	21.195799	116.862992
	9.431564	20.531690	75.454076	18.327724	114.313490
	9.062142	22.443129	77.350118	21.355136	121.148382
	9.234539	22.761702	77.666125	22.311161	122.738987
	9.283795	26.584578	79.878174	23.585861	130.048612
	9.259167	21.487409	77.350118	22.311161	121.148688
	9.136026	21.805983	74.980065	20.877123	117.663171
	9.160654	23.080275	78.298139	22.311161	123.689574
	9.160654	21.646696	76.876107	20.877123	119.399927
	9.357679	21.646696	80.194181	21.992486	123.833363
	9.406936	21.805983	76.876107	23.904536	122.586625
	9.431564	22.602415	74.506055	22.151823	119.260293
	9.111398	21.805983	76.244093	21.036461	119.086536
	9.406936	25.628858	81.300205	25.497911	132.426975
	9.456192	25.310286	78.930153	22.629836	126.870274
	9.333051	22.443129	79.246160	23.426524	125.115812
	9.185282	22.920988	77.508121	22.470499	122.899608
	9.012885	23.558134	80.036177	23.267186	126.861497
	9.037514	21.328123	77.350118	21.514474	120.192714
	8.988257	20.213117	74.980065	19.283748	114.476931
	8.840489	22.124555	77.034110	21.036461	120.195127
	9.136026	22.443129	76.244093	21.673811	120.361032
	8.939001	23.080275	78.614146	24.541886	126.236306
	9.086770	22.283842	77.824128	20.717786	120.825756
	9.111398	23.876707	75.770083	20.239773	119.886563
	8.939001	20.531690	77.824128	21.673811	120.029629
	9.185282	21.646696	76.560100	21.355136	119.561932
	9.012885	21.328123	76.718104	22.789174	120.835400
	9.037514	22.761702	77.192114	21.833149	121.786964
	9.111398	23.080275	78.140135	22.311161	123.531571
	9.012885	22.283842	78.614146	21.195799	122.093786
	9.037514	24.673140	77.666125	21.992486	124.331750
	8.988257	21.168837	76.560100	23.585861	121.314797
	9.333051	22.602415	77.034110	23.585861	123.222386
	8.914373	22.124555	77.192114	19.921099	119.237768
	9.111398	23.398847	80.668191	23.585861	127.652900
	9.111398	22.124555	77.192114	21.673811	120.990481
	8.914373	22.761702	76.718104	22.789174	122.268979
	9.136026	24.035993	75.454076	21.992486	121.482555
	9.160654	22.283842	78.298139	23.107848	123.689829
	9.899498	21.965269	78.298139	22.311161	122.574568
	9.086770	23.080275	78.930153	22.151823	124.162250
	9.259167	21.168837	76.560100	22.789174	120.518110
	9.062142	23.080275	78.930153	26.135261	128.145688
	9.259167	20.531690	76.086090	21.195799	117.813579
	9.136026	21.487409	75.296072	19.124411	115.907893
	8.988257	24.832426	77.508121	22.151823	124.492370
	8.865117	21.646696	76.718104	21.195799	119.560598
	9.259167	24.832426	77.508121	22.629836	124.970383
	8.914373	22.283842	77.508121	22.629836	122.421799
	9.111398	21.168837	75.770083	21.195799	118.134717
	9.259167	21.646696	75.770083	18.965074	116.381852
	9.259167	19.098112	75.454076	19.602424	114.154611
	9.062142	24.195280	78.140135	23.585861	125.921276
	9.333051	19.735258	76.402096	21.992486	118.129841
	9.111398	21.646696	76.086090	21.992486	119.725272
	9.111398	19.098112	76.560100	18.487061	114.145273
	9.086770	22.602415	77.508121	21.355136	121.465672
	9.283795	22.124555	74.664058	19.921099	116.709712
	9.086770	21.009550	76.560100	21.673811	119.243461
	9.382307	19.098112	74.980065	19.443086	113.521263
	9.012885	23.398847	78.456142	23.267186	125.122175
	9.874870	18.301680	73.874041	17.849711	110.025431
	9.136026	20.531690	75.454076	19.602424	115.588190
	9.111398	17.823820	72.294006	18.009048	108.126874
	9.357679	25.788145	78.298139	24.860561	128.946844
	9.406936	21.805983	78.456142	23.745199	124.007323
	9.062142	24.354567	79.562167	21.992486	125.909219
	9.800986	19.416685	75.138069	20.080436	114.635189
	9.333051	23.876707	80.036177	22.948511	126.861395
	9.283795	19.894544	75.296072	19.921099	115.111715
	9.185282	21.487409	74.506055	20.558449	116.551913
	9.111398	21.328123	75.138069	19.443086	115.909278
	9.062142	23.080275	78.456142	22.151823	123.688240
	9.382307	20.213117	77.666125	19.761761	117.641003
	9.037514	22.602415	75.454076	19.921099	117.977589
	9.259167	18.938826	74.664058	21.514474	115.117357
	9.012885	23.080275	77.666125	23.585861	124.332260
	9.160654	21.009550	76.244093	18.965074	116.218716
	9.185282	21.805983	75.928086	21.833149	119.567217
	9.456192	18.460966	73.242027	18.168386	109.871379
	8.791232	23.876707	79.562167	23.904536	127.343410
	9.160654	19.735258	74.822062	18.168386	112.725706
	9.111398	22.920988	78.140135	23.107848	124.168972
	9.431564	20.531690	75.138069	20.399111	116.068870
	8.963629	25.150999	76.718104	20.877123	122.746226
	9.382307	19.894544	76.560100	19.602424	116.057068
	9.062142	22.124555	75.612079	21.992486	119.729120
	9.136026	19.575972	75.928086	21.673811	117.177869
	8.963629	23.398847	77.508121	21.036461	121.943430
	9.185282	21.646696	78.140135	22.311161	122.097992
	8.840489	20.690977	74.980065	19.921099	115.592140
	9.086770	22.761702	75.138069	21.355136	119.254906
	9.406936	20.372404	75.612079	20.877123	116.861606
	9.554704	18.301680	73.874041	18.646399	110.822119
	9.259167	22.283842	78.930153	21.514474	122.728468
	9.283795	20.531690	76.244093	20.399111	117.174894
	9.406936	22.602415	76.244093	22.470499	121.317007
	9.086770	18.301680	73.400030	21.514474	113.216183
	8.815860	25.150999	77.824128	23.267186	126.242313
	9.062142	19.894544	78.456142	20.558449	118.909135
	9.160654	22.920988	77.982132	22.311161	123.214281
	9.431564	20.053831	73.716037	19.921099	113.690967
	9.259167	21.646696	76.244093	22.629836	120.520625
	9.480820	20.531690	76.402096	21.514474	118.448261
	9.185282	23.080275	77.508121	23.107848	123.696244
	9.111398	21.965269	77.192114	21.833149	120.990532
	9.160654	21.965269	76.402096	20.877123	119.244489
	9.505448	19.735258	77.034110	20.239773	117.009142
	9.308423	24.673140	77.034110	23.904536	125.611786
	9.357679	20.850264	76.244093	23.426524	120.520880
	8.939001	24.832426	78.772149	22.470499	126.075074
	9.037514	21.805983	75.928086	20.399111	118.133180
	9.234539	24.195280	79.088156	24.860561	128.143997
	9.554704	22.920988	78.140135	23.107848	124.168972
	8.963629	21.009550	76.244093	21.355136	118.608779
	9.160654	21.965269	79.562167	21.673811	123.201246
	8.963629	21.168837	76.402096	20.717786	118.288719
	9.111398	21.965269	75.612079	21.833149	119.410496
	8.865117	24.195280	75.612079	19.443086	119.250445
	8.865117	21.328123	78.140135	24.063874	123.532132
	9.086770	22.602415	78.140135	23.267186	124.009736
	9.136026	22.443129	77.982132	21.195799	121.621059
	8.914373	22.443129	76.086090	21.673811	120.203029
	9.382307	19.894544	75.138069	20.558449	115.591061
	9.111398	22.124555	76.560100	21.992486	120.677142
	9.431564	24.832426	78.140135	22.948511	125.921072
	9.086770	21.965269	77.824128	22.151823	121.941221
	9.382307	20.372404	74.506055	19.761761	114.640220
	8.988257	21.487409	74.822062	20.399111	116.708582
	9.357679	19.894544	74.980065	20.399111	115.273720
	9.209910	23.080275	78.140135	25.019899	126.240308
	8.963629	22.761702	77.666125	22.789174	123.217000
	9.185282	23.876707	76.560100	20.558449	120.995255
	9.185282	21.328123	77.666125	21.514474	120.508721
	9.185282	22.124555	76.402096	21.514474	120.041125
	8.963629	24.354567	76.402096	22.311161	123.067824
	9.185282	22.761702	77.982132	23.426524	124.170357
	9.406936	25.469572	80.194181	25.019899	130.683651
	9.234539	25.150999	76.876107	22.789174	124.816280
	9.136026	20.213117	76.876107	20.080436	117.169660
	8.988257	24.673140	79.088156	22.629836	126.391132
	9.086770	23.558134	80.510188	25.179236	129.247558
	9.062142	23.239561	75.612079	22.311161	121.162801
	8.889745	20.053831	73.084023	18.009048	111.146903
	9.111398	24.673140	79.246160	23.904536	127.823835
	8.963629	24.354567	76.086090	20.558449	120.999105
	9.308423	20.531690	77.824128	21.514474	119.870292
	9.111398	22.761702	77.192114	22.470499	122.424314
	9.259167	20.372404	75.296072	20.877123	116.545600
	9.259167	23.558134	77.192114	22.311161	123.061409
	9.382307	20.053831	75.928086	19.761761	115.743678
	9.234539	22.761702	76.086090	21.195799	120.043590
	9.382307	22.443129	74.822062	22.789174	120.054364
	8.963629	22.920988	77.824128	24.541886	125.287002
	9.357679	22.602415	76.876107	20.717786	120.196308
	9.308423	24.195280	78.930153	24.223211	127.348644
	9.382307	19.735258	74.190048	19.761761	113.687067
	9.086770	22.920988	77.666125	22.789174	123.376286
	9.406936	19.575972	74.190048	19.602424	113.368443
	9.209910	25.150999	78.298139	21.833149	125.282286
	9.505448	19.416685	75.296072	19.602424	114.315181
	9.086770	21.168837	74.190048	20.558449	115.917333
	9.283795	20.531690	74.348051	20.558449	115.438190
	9.234539	21.805983	76.244093	25.019899	123.069974
	9.185282	20.372404	75.296072	21.673811	117.342287
	9.062142	23.080275	77.192114	21.195799	121.468187
	9.160654	21.328123	76.244093	21.833149	119.405364
	9.283795	23.398847	78.930153	22.470499	124.799499
	9.357679	22.124555	76.718104	22.311161	121.153820
	9.086770	24.991712	74.980065	22.470499	122.442276
	9.456192	19.894544	74.664058	20.399111	114.957714
	9.283795	23.080275	76.876107	21.833149	121.789530
	9.653217	24.991712	78.298139	22.151823	125.441675
	9.160654	22.283842	76.560100	21.673811	120.517753
	9.505448	21.168837	74.664058	23.267186	119.100081
	9.136026	21.965269	76.876107	24.063874	122.905249
	9.357679	21.965269	74.822062	18.487061	115.274391
	9.283795	24.513853	76.876107	23.267186	124.657146
	9.283795	22.283842	76.718104	21.992486	120.994432
	9.259167	25.310286	76.402096	22.151823	123.864205
	9.357679	19.575972	77.508121	20.558449	117.642541
	9.062142	23.239561	77.034110	22.629836	122.903507
	9.333051	22.920988	76.402096	23.426524	122.749608
	9.037514	22.124555	75.928086	20.558449	118.611090
	9.357679	21.805983	77.034110	22.789174	121.629266
	8.939001	23.239561	78.140135	25.338573	126.718269
	9.185282	24.354567	76.244093	23.107848	123.706508
	8.988257	20.690977	74.190048	20.558449	115.439473
	9.209910	22.124555	75.928086	21.833149	119.885790
	8.988257	22.920988	77.034110	23.107848	123.062947
	8.939001	22.283842	78.298139	22.311161	122.893142
	8.963629	21.646696	76.244093	21.514474	119.405262
	8.914373	21.328123	74.822062	20.877123	117.027308
	9.136026	23.717420	77.192114	21.992486	122.902021
	9.136026	22.761702	77.192114	22.151823	122.105639
	8.988257	22.602415	74.822062	22.629836	120.054312
	9.037514	25.788145	77.192114	25.497911	128.478170
	9.209910	22.761702	76.560100	23.585861	122.907663
	9.209910	22.443129	78.140135	20.080436	120.663700
	9.160654	23.080275	76.718104	21.833149	121.631527
	8.889745	22.761702	77.034110	23.745199	123.541010
	9.111398	21.168837	76.086090	21.355136	118.610062
	8.963629	22.443129	77.508121	22.789174	122.740423
	9.382307	22.761702	74.190048	21.036461	117.988210
	8.988257	22.124555	76.244093	21.992486	120.361134
	9.259167	20.053831	74.190048	19.283748	113.527627
	9.259167	24.673140	78.930153	20.399111	124.002403
	9.062142	18.460966	74.348051	21.195799	114.004816
	9.111398	23.239561	74.980065	24.382548	122.602174
	9.456192	18.301680	73.716037	18.168386	110.186103
	9.136026	23.080275	76.560100	21.833149	121.473523
	9.259167	20.213117	76.718104	21.036461	117.967682
	8.963629	23.558134	78.772149	22.789174	125.119457
	9.259167	22.920988	74.032044	20.877123	117.830156
	9.062142	21.965269	75.928086	22.311161	120.204516
	9.357679	21.009550	75.296072	20.239773	116.545396
	8.840489	21.965269	75.612079	21.673811	119.251159
	9.283795	22.283842	76.876107	23.585861	122.745810
	8.914373	21.965269	74.980065	24.541886	121.487220
	9.283795	22.761702	76.876107	23.267186	122.904995
	8.889745	25.150999	76.718104	22.151823	124.020926
	8.963629	18.301680	72.926020	19.761761	110.989460
	9.062142	27.381010	81.300205	27.250623	135.931838
	9.406936	23.558134	77.192114	23.107848	123.858097
	9.209910	21.328123	77.192114	22.311161	120.831398
	9.185282	22.602415	77.350118	23.267186	123.219719
	8.963629	22.761702	76.244093	22.311161	121.316955
	8.889745	23.080275	78.298139	23.745199	125.123612
	8.865117	22.283842	77.034110	21.992486	121.310438
	8.889745	22.283842	75.612079	24.382548	122.278469
	8.840489	24.991712	76.718104	24.063874	125.773690
	9.111398	21.646696	76.244093	20.877123	118.767912
	8.692720	23.876707	80.352184	23.267186	127.496077
	9.012885	24.354567	76.560100	22.789174	123.703840
	8.766604	20.213117	73.242027	21.355136	114.810280
	8.939001	22.283842	75.454076	23.107848	120.845766
	8.963629	21.487409	77.034110	22.789174	121.310693
	8.988257	22.602415	77.824128	22.789174	123.215717
	8.963629	22.124555	76.402096	21.673811	120.200463
	8.889745	26.266004	77.034110	23.585861	126.885976
	9.111398	23.398847	75.138069	22.789174	121.326090
	8.914373	20.850264	76.718104	23.745199	121.313566
	8.865117	22.283842	74.190048	20.877123	117.351013
	8.889745	21.009550	76.244093	22.311161	119.564804
	8.717348	23.239561	76.560100	23.267186	123.066847
	8.766604	22.443129	78.456142	23.107848	124.007119
	8.791232	21.646696	75.612079	21.833149	119.091923
	8.815860	25.469572	75.138069	22.629836	123.237476
	9.111398	21.328123	75.612079	21.514474	118.454676
	8.865117	23.239561	76.718104	23.267186	123.224851
	9.160654	20.531690	76.560100	23.267186	120.358977
	9.012885	21.965269	75.770083	25.497911	123.233263
	9.209910	19.735258	73.242027	20.717786	113.695071
	8.914373	23.398847	76.560100	22.311161	122.270109
	9.111398	21.965269	75.454076	21.514474	118.933818
	8.988257	21.646696	73.716037	22.151823	117.514556
	9.160654	21.168837	75.454076	22.151823	118.774736
	9.111398	25.628858	76.876107	24.223211	126.728177
	9.382307	16.549528	74.664058	18.327724	109.541310
	9.062142	23.717420	77.350118	23.267186	124.334724
	9.136026	21.487409	73.242027	20.877123	115.606560
	8.791232	21.646696	75.296072	22.151823	119.094592
	9.259167	22.761702	77.508121	24.860561	125.130384
	8.889745	23.558134	78.614146	25.497911	127.670191
	8.791232	25.150999	77.824128	22.789174	125.764301
	8.914373	22.761702	76.718104	23.426524	122.906329
	8.889745	21.168837	76.244093	22.151823	119.564753
	8.939001	24.991712	76.244093	22.948511	124.184316
	8.791232	20.531690	73.874041	22.470499	116.876230
	8.963629	22.283842	75.928086	22.311161	120.523089
	8.569579	22.124555	76.718104	23.107848	121.950508
	9.136026	20.690977	77.666125	20.239773	118.596875
	8.815860	20.690977	74.506055	20.558449	115.755480
	9.012885	21.487409	73.716037	24.541886	119.745333
	9.111398	25.150999	75.928086	24.063874	125.142959
	9.259167	19.894544	75.612079	20.239773	115.746397
	9.259167	22.761702	77.508121	23.107848	123.377671
	9.283795	19.257399	74.190048	20.399111	113.846557
	9.062142	22.920988	75.612079	22.789174	121.322240
	9.209910	19.894544	74.190048	21.036461	115.121053
	8.963629	22.761702	76.402096	22.151823	121.315621
	9.308423	23.239561	74.822062	21.514474	119.576096
	9.037514	21.646696	75.454076	21.514474	118.615245
	9.185282	21.328123	75.454076	22.629836	119.412035
	9.012885	23.558134	78.772149	24.063874	126.394157
	9.111398	21.328123	77.034110	24.541886	122.904120
	9.259167	22.124555	74.032044	20.399111	116.555711
	8.889745	22.602415	74.980065	22.789174	120.371654
	8.741976	21.009550	75.612079	21.992486	118.614115
	8.717348	20.690977	75.296072	21.514474	117.501523
	9.062142	21.805983	76.402096	22.789174	120.997253
	9.086770	23.717420	74.506055	21.673811	119.897286
	8.963629	19.416685	74.664058	19.921099	114.001842
	9.037514	21.646696	77.508121	20.558449	119.713266
	9.111398	22.443129	72.610012	19.283748	114.336889
	8.889745	21.646696	75.454076	23.267186	120.367958
	9.136026	19.735258	74.032044	21.833149	115.600450
	8.963629	22.283842	77.824128	22.789174	122.897143
	9.136026	19.575972	74.822062	20.558449	114.956481
	8.865117	23.398847	75.454076	23.426524	122.279447
	9.062142	20.213117	72.926020	21.195799	114.334936
	9.062142	26.743864	78.140135	24.382548	129.266548
	9.111398	19.575972	76.560100	21.992486	118.128558
	9.062142	22.761702	76.086090	22.151823	120.999615
	9.185282	21.487409	75.928086	22.789174	120.204669
	9.185282	21.646696	75.612079	21.514474	118.773248
	9.160654	23.080275	78.140135	27.091286	128.311696
	8.963629	23.239561	74.822062	23.107848	121.169471
	9.111398	24.035993	76.244093	21.514474	121.794560
	8.865117	22.124555	75.928086	23.267186	121.319828
	9.185282	21.328123	77.508121	21.992486	120.828730
	9.062142	21.965269	75.770083	22.470499	120.205850
	8.889745	20.850264	73.084023	22.311161	116.245447
	9.012885	22.443129	75.296072	22.789174	120.528374
	8.963629	21.965269	76.086090	22.151823	120.203182
	9.136026	21.965269	76.244093	21.514474	119.723836
	8.815860	21.328123	75.138069	20.877123	117.343315
	9.234539	19.575972	72.926020	21.195799	113.697789
	9.111398	23.239561	76.086090	23.107848	122.433499
	9.283795	21.009550	75.454076	20.558449	117.022074
	8.914373	23.558134	75.770083	23.426524	122.754740
	8.889745	20.372404	71.819995	18.805736	110.998135
	9.185282	25.628858	79.404163	27.250623	132.283645
	9.406936	21.009550	76.402096	21.673811	119.085458
	8.939001	22.124555	76.402096	23.585861	122.112513
	9.160654	21.965269	74.348051	22.151823	118.465144
	9.062142	24.195280	76.718104	23.745199	124.658582
	9.160654	21.009550	75.454076	20.558449	117.022074
	8.963629	25.788145	76.718104	24.701224	127.207472
	9.209910	21.009550	76.244093	24.541886	121.795529
	9.012885	21.965269	74.664058	20.239773	116.869101
	9.234539	20.053831	76.244093	21.673811	117.971735
	8.988257	21.009550	75.138069	21.514474	117.662092
	9.062142	21.487409	74.190048	23.107848	118.785306
	8.988257	23.080275	76.560100	23.585861	123.226236
	9.037514	24.354567	75.928086	23.107848	123.390501
	8.914373	21.487409	79.404163	22.151823	123.043396
	8.939001	22.602415	76.402096	22.311161	121.315673
	8.889745	22.602415	74.822062	23.426524	120.851000
	8.692720	23.398847	76.876107	27.728636	128.003591
	8.865117	22.124555	76.402096	22.470499	120.997151
	8.815860	22.124555	77.034110	21.036461	120.195127
	9.062142	24.513853	76.876107	23.426524	124.816484
	8.815860	22.761702	76.244093	23.267186	122.272980
	9.160654	21.965269	76.718104	22.470499	121.153871
	9.037514	24.354567	76.244093	22.470499	123.069158
	9.136026	19.735258	73.084023	21.036461	113.855742
	9.037514	24.513853	77.508121	24.223211	126.245185
	9.209910	21.805983	75.138069	21.036461	117.980512
	9.062142	21.646696	77.192114	21.514474	120.353284
	9.480820	18.779539	73.084023	21.195799	113.059360
	9.357679	22.920988	75.296072	24.701224	122.918284
	9.136026	21.646696	72.768016	19.124411	113.539123
	9.086770	24.513853	78.930153	24.860561	128.304566
	9.406936	21.646696	75.612079	21.992486	119.251261
	9.209910	25.310286	75.928086	22.470499	123.708870
	9.037514	20.531690	76.086090	22.948511	119.566291
	9.185282	20.372404	75.138069	21.195799	116.706271
	9.406936	19.575972	74.664058	21.195799	115.435828
	9.160654	22.761702	74.822062	21.833149	119.416911
	9.185282	22.761702	77.034110	22.789174	122.584986
	8.865117	23.398847	76.244093	25.019899	124.662839
	9.259167	24.354567	78.930153	24.541886	127.826605
	8.889745	22.761702	77.350118	21.673811	121.785630
	8.815860	22.920988	75.612079	24.063874	122.596940
	8.988257	23.558134	76.560100	24.541886	124.660120
	8.914373	21.009550	75.928086	22.311161	119.248797
	8.692720	25.469572	78.298139	23.585861	127.353572
	8.963629	21.965269	76.086090	23.745199	121.796557
	8.791232	25.150999	75.454076	22.470499	123.075573
	8.865117	19.735258	75.454076	20.877123	116.066457
	8.815860	22.124555	76.086090	22.629836	120.840481
	8.692720	22.283842	74.190048	25.019899	121.493788
	8.668092	21.805983	76.086090	23.904536	121.796608
	8.520323	21.965269	76.086090	20.877123	118.928482
	8.495695	22.602415	78.930153	23.107848	124.640416
	8.618835	20.053831	74.506055	21.036461	115.596347
	8.766604	22.283842	74.664058	22.470499	119.418399
	8.692720	23.717420	77.666125	24.541886	125.925431
	8.791232	25.310286	77.034110	23.745199	126.089595
	8.372554	21.168837	75.138069	22.151823	118.458729
	9.012885	20.531690	74.506055	20.239773	115.277518
	8.815860	24.513853	75.296072	20.399111	120.209036
	9.111398	19.098112	75.138069	21.992486	116.228667
	8.569579	22.761702	76.244093	24.223211	123.229005
	9.062142	19.098112	73.084023	19.921099	112.103234
	8.840489	23.558134	75.928086	22.948511	122.434731
	8.914373	19.098112	73.874041	20.558449	113.530601
	8.939001	22.920988	77.192114	22.948511	123.061613
	9.012885	21.487409	73.874041	20.877123	116.238574
	8.840489	21.168837	74.190048	22.311161	117.670045
	9.037514	20.850264	74.506055	21.673811	117.030129
	8.618835	20.531690	74.980065	21.673811	117.185566
	9.012885	20.213117	75.454076	20.399111	116.066304
	8.643463	22.920988	77.034110	25.816586	125.771684
	8.939001	21.168837	75.138069	23.904536	120.211441
	8.717348	25.150999	78.140135	22.151823	125.442958
	8.815860	21.009550	76.244093	22.789174	120.042817
	8.840489	23.558134	75.454076	23.745199	122.757408
	8.939001	21.168837	75.770083	22.470499	119.409418
	8.840489	22.124555	76.560100	23.426524	122.111179
	9.111398	24.035993	81.932219	24.860561	130.828774
	8.692720	23.080275	77.350118	22.948511	123.378903
	8.815860	23.398847	74.822062	22.629836	120.850745
	8.741976	21.328123	74.506055	20.877123	116.711301
	8.692720	22.283842	76.402096	25.179236	123.865174
	8.865117	22.920988	74.980065	22.948511	120.849564
	8.643463	23.239561	77.508121	22.948511	123.696193
	8.988257	23.717420	77.350118	23.585861	124.653399
	8.717348	23.239561	77.192114	22.470499	122.902174
	8.963629	19.735258	74.348051	21.195799	115.279108
	8.865117	21.328123	73.716037	21.673811	116.717971
	9.357679	20.531690	75.138069	21.992486	117.662245
	8.865117	22.920988	75.296072	21.514474	119.731534
	8.988257	20.531690	74.190048	19.921099	114.642837
	8.939001	23.080275	76.244093	21.992486	121.316853
	9.062142	23.239561	74.664058	22.311161	120.214780
	9.086770	21.805983	79.088156	24.223211	125.117350
	9.111398	20.372404	74.980065	20.558449	115.910917
	8.741976	22.124555	75.296072	22.311161	119.731789
	8.914373	19.575972	74.190048	21.195799	114.961817
	8.717348	23.876707	77.508121	24.541886	125.926714
	9.136026	21.805983	77.824128	23.107848	122.737959
	8.963629	24.035993	76.086090	22.789174	122.911257
	9.062142	19.257399	73.242027	21.036461	113.535886
	8.544951	22.443129	75.612079	21.833149	119.888356
	8.840489	24.195280	78.456142	25.019899	127.671321
	8.717348	22.602415	79.088156	25.816586	127.507157
	8.865117	22.124555	76.402096	24.382548	122.909200
	8.421810	23.558134	75.612079	22.629836	121.800049
	8.815860	22.920988	74.348051	22.311161	119.580200
	8.791232	19.257399	73.400030	19.761761	112.419190
	8.988257	24.832426	79.404163	25.019899	129.256487
	8.791232	26.425291	78.772149	25.497911	130.695351
	9.037514	20.690977	74.980065	21.833149	117.504190
	9.012885	23.080275	78.140135	23.745199	124.965608
	8.988257	21.965269	74.822062	21.036461	117.823791
	8.963629	20.372404	74.822062	20.877123	116.071589
	8.963629	21.168837	74.822062	21.833149	117.824047
	8.939001	17.664534	73.084023	21.036461	111.785018
	8.741976	26.425291	77.034110	23.585861	127.045263
	9.283795	17.505247	72.452009	18.646399	108.603655
	8.914373	22.443129	75.454076	22.789174	120.686378
	9.234539	22.761702	76.086090	20.877123	119.724915
	8.865117	21.965269	77.034110	23.107848	122.107228
	9.111398	22.920988	75.138069	23.426524	121.485580
	8.963629	21.646696	75.770083	22.470499	119.887277
	9.259167	19.575972	74.822062	20.558449	114.956481
	8.865117	22.602415	77.824128	21.673811	122.100354
	9.308423	21.168837	75.454076	22.789174	119.412086
	8.865117	24.513853	75.454076	24.382548	124.350477
	9.136026	20.372404	75.928086	21.514474	117.814964
	8.741976	23.717420	77.824128	23.904536	125.446085
	9.111398	20.690977	75.296072	22.311161	118.298210
	8.889745	23.239561	77.192114	24.223211	124.654886
	8.988257	21.646696	74.664058	22.789174	119.099928
	8.939001	22.124555	76.402096	22.470499	120.997151
	9.259167	23.558134	77.508121	23.585861	124.652116
	8.914373	21.487409	76.244093	21.514474	119.245976
	9.259167	22.283842	77.034110	23.585861	122.903813
	8.889745	23.398847	75.928086	25.338573	124.665507
	9.308423	19.735258	75.296072	22.311161	117.342491
	8.963629	23.080275	76.876107	21.514474	121.470855
	9.012885	21.646696	75.138069	22.948511	119.733275
	8.939001	23.239561	76.560100	23.904536	123.704197
	8.889745	21.009550	76.244093	22.311161	119.564804
	8.766604	23.558134	77.192114	24.701224	125.451471
	9.062142	25.947432	78.140135	24.860561	128.948127
	9.012885	22.443129	76.244093	22.789174	121.476395
	9.012885	22.602415	79.878174	22.470499	124.951087
	8.791232	24.673140	76.086090	21.195799	121.955028
	8.766604	21.009550	75.138069	23.267186	119.414805
	8.840489	22.443129	75.454076	24.063874	121.961078
	8.963629	20.372404	76.876107	21.992486	119.240997
	8.791232	24.035993	78.298139	22.470499	124.804631
	8.618835	21.646696	75.928086	21.992486	119.567268
	8.865117	22.761702	76.402096	22.789174	121.952972
	8.914373	24.832426	77.666125	23.904536	126.403087
	9.111398	22.920988	78.298139	24.063874	125.283000
	8.618835	21.965269	74.348051	22.151823	118.465144
	8.939001	22.124555	76.086090	21.833149	120.043794
	8.815860	21.487409	76.244093	21.833149	119.564651
	8.815860	22.124555	79.088156	22.948511	124.161223
	8.766604	22.443129	76.718104	24.223211	123.384443
	8.815860	23.558134	75.138069	20.877123	119.573326
	9.012885	24.513853	78.456142	25.019899	127.989893
	9.185282	21.009550	75.296072	21.355136	117.660758
	9.136026	22.761702	77.192114	22.470499	122.424314
	9.086770	20.053831	75.138069	21.514474	116.706373
	8.939001	22.602415	75.454076	22.789174	120.845664
	9.209910	19.098112	72.768016	18.965074	110.831202
	9.012885	24.035993	77.824128	22.948511	124.808633
	9.209910	22.602415	77.508121	22.948511	123.059047
	9.037514	23.717420	77.824128	24.860561	126.402110
	9.012885	23.876707	75.612079	23.904536	123.393322
	9.382307	21.328123	78.614146	21.514474	121.456742
	9.431564	17.505247	72.768016	17.690373	107.963637
	9.406936	26.584578	77.034110	24.860561	128.479249
	8.988257	18.620252	73.558034	21.036461	113.214747
	8.988257	24.832426	78.930153	24.701224	128.463802
	9.259167	18.779539	75.928086	20.239773	114.947399
	8.865117	23.717420	77.192114	22.948511	123.858046
	9.136026	21.487409	76.244093	22.311161	120.042663
	8.865117	22.283842	77.350118	21.514474	121.148433
	9.062142	25.469572	78.298139	23.267186	127.034897
	8.865117	22.443129	75.454076	24.701224	122.598428
	8.939001	21.487409	76.402096	23.904536	121.794042
	8.446438	22.761702	77.350118	22.789174	122.900993
	9.234539	21.328123	80.036177	22.629836	123.994136
	8.889745	21.646696	75.770083	21.514474	118.931252
	8.618835	22.920988	76.086090	23.745199	122.752276
	8.717348	23.717420	75.612079	22.789174	122.118673
	8.766604	22.761702	78.772149	24.223211	125.757062
	8.865117	22.283842	77.982132	21.833149	122.099122
	8.668092	23.239561	77.034110	21.833149	122.106820
	8.840489	21.646696	75.770083	22.629836	120.046614
	8.914373	21.646696	76.402096	23.904536	121.953328
	8.815860	21.646696	77.034110	20.399111	119.079917
	8.668092	24.354567	77.192114	22.789174	124.335854
	9.111398	21.328123	76.402096	22.311161	120.041381
	8.741976	22.124555	75.612079	22.789174	120.525808
	9.086770	21.487409	75.454076	20.399111	117.340596
	9.012885	21.487409	76.718104	22.311161	120.516674
	9.012885	20.213117	74.032044	20.239773	114.484935
	9.234539	22.443129	76.244093	22.151823	120.839045
	9.136026	18.620252	75.138069	20.080436	113.838757
	8.791232	23.239561	78.930153	23.267186	125.436900
	9.357679	20.372404	75.770083	23.426524	119.569010
	9.111398	23.239561	75.454076	22.789174	121.482810
	9.259167	20.372404	77.666125	21.514474	119.553002
	8.766604	22.761702	76.876107	21.992486	121.630295
	8.963629	26.266004	76.402096	23.745199	126.413299
	8.692720	18.460966	73.716037	19.602424	111.779426
	9.062142	24.035993	78.930153	25.019899	127.986045
	8.889745	23.558134	82.564233	24.701224	130.823590
	8.963629	24.354567	80.510188	25.179236	130.043990
	8.717348	23.080275	76.244093	22.151823	121.476191
	8.766604	20.372404	73.874041	20.239773	114.486218
	9.037514	24.195280	77.982132	24.701224	126.878635
	9.160654	24.035993	77.824128	24.223211	126.083333
	9.185282	20.690977	75.296072	20.558449	116.545498
	8.594207	21.168837	73.400030	21.195799	115.764665
	9.308423	19.894544	76.718104	21.673811	118.286459
	9.160654	20.531690	75.454076	20.877123	116.862890
	9.185282	20.531690	74.190048	21.355136	116.076874
	9.037514	21.168837	74.506055	20.239773	115.914665
	9.136026	19.098112	74.348051	19.602424	113.048586
	9.111398	21.487409	78.140135	20.717786	120.345331
	9.259167	21.328123	75.138069	22.151823	118.618015
	9.209910	22.283842	76.402096	25.019899	123.705837
	9.012885	22.602415	77.508121	21.514474	121.625010
	8.840489	23.239561	77.666125	23.426524	124.332209
	9.209910	24.832426	80.352184	24.860561	130.045171
	9.086770	21.965269	76.560100	22.789174	121.314543
	8.939001	19.735258	74.506055	20.877123	115.118436
	9.283795	23.239561	76.718104	21.673811	121.631476
	9.308423	22.920988	78.930153	24.382548	126.233689
	8.766604	22.124555	75.138069	21.992486	119.255110
	9.136026	24.195280	76.402096	21.673811	122.271187
	9.111398	21.965269	77.824128	23.426524	123.215921
	9.062142	23.239561	81.142202	25.657249	130.039011
	9.012885	22.602415	78.140135	25.975924	126.718473
	9.086770	23.876707	76.244093	22.948511	123.069311
	8.889745	23.398847	77.350118	24.223211	124.972176
	8.914373	23.080275	78.140135	23.426524	124.646933
	9.012885	24.354567	77.508121	22.629836	124.492524
	8.840489	21.646696	76.560100	22.789174	120.995970
	9.308423	23.558134	77.824128	23.904536	125.286798
	9.259167	22.124555	78.140135	21.673811	121.938502
	9.012885	20.690977	76.718104	21.195799	118.604879
	9.136026	23.080275	76.086090	23.107848	122.274213
	9.283795	17.983107	73.242027	20.717786	111.942919
	9.209910	23.717420	76.718104	23.107848	123.543373
	9.283795	20.690977	79.720170	21.833149	122.244296
	8.815860	22.920988	77.350118	22.789174	123.060279
	9.333051	24.035993	76.402096	24.860561	125.298651
	8.914373	20.531690	75.612079	21.992486	118.136255
	8.988257	21.646696	77.192114	22.948511	121.787321
	9.012885	22.602415	78.456142	22.789174	123.847731
	9.062142	22.920988	77.192114	22.470499	122.583601
	9.160654	20.850264	75.770083	20.877123	117.497469
	9.062142	21.965269	76.876107	24.382548	123.223924
	9.333051	24.832426	77.192114	24.382548	126.407089
	8.963629	22.283842	76.718104	22.311161	121.313107
	9.037514	21.009550	75.928086	21.195799	118.133435
	9.037514	24.195280	77.666125	23.426524	125.287928
	9.185282	19.098112	78.456142	20.877123	118.431377
	9.382307	23.398847	77.982132	23.904536	125.285515
	9.357679	19.575972	74.032044	21.673811	115.281826
	9.185282	24.673140	77.034110	23.426524	125.133774
	9.209910	18.779539	74.664058	19.283748	112.727346
	9.234539	23.080275	77.824128	21.514474	122.418876
	9.579332	25.150999	78.140135	23.426524	126.717658
	9.185282	22.124555	77.350118	24.382548	123.857222
	9.283795	22.761702	79.246160	25.975924	127.983785
	9.037514	22.602415	76.718104	21.992486	121.313005
	9.333051	21.009550	75.928086	22.311161	119.248797
	9.111398	22.283842	76.560100	22.470499	121.314441
	9.160654	24.354567	79.562167	25.179236	129.095969
	9.062142	24.673140	79.878174	23.107848	127.659162
	9.062142	21.009550	76.560100	22.629836	120.199486
	9.209910	22.283842	75.928086	22.151823	120.363752
	8.914373	24.195280	77.192114	22.789174	124.176568
	9.308423	19.575972	75.296072	21.036461	115.908505
	9.283795	22.283842	77.824128	23.745199	123.853168
	9.136026	20.531690	75.928086	20.239773	116.699550
	9.160654	24.035993	77.034110	22.789174	123.859278
	9.333051	19.575972	75.928086	20.877123	116.381181
	9.406936	24.991712	79.720170	25.179236	129.891119
	9.333051	21.965269	74.664058	21.673811	118.303138
	9.111398	21.168837	76.560100	22.629836	120.358773
	9.357679	21.328123	76.560100	21.992486	119.880709
	9.111398	21.805983	79.878174	22.151823	123.835980
	9.308423	20.372404	76.560100	21.036461	117.968965
	9.111398	22.443129	75.138069	22.948511	120.529708
	9.062142	21.965269	76.560100	24.860561	123.385930
	9.283795	24.195280	77.508121	24.063874	125.767274
	9.086770	21.805983	78.772149	22.789174	123.367305
	9.037514	23.558134	78.456142	24.223211	126.237487
	9.259167	24.513853	76.876107	22.789174	124.179134
	9.160654	21.328123	78.456142	23.107848	122.892114
	9.185282	22.761702	77.982132	23.426524	124.170357
	9.209910	20.053831	75.138069	21.514474	116.706373
	9.209910	21.646696	75.770083	21.355136	118.771914
	9.160654	20.372404	75.138069	19.761761	115.272233
	9.308423	22.602415	77.824128	22.789174	123.215717
	9.480820	21.328123	75.454076	21.833149	118.615347
	9.259167	20.213117	74.980065	23.745199	118.938381
	9.431564	20.053831	74.506055	20.239773	114.799659
	8.988257	24.195280	78.140135	23.745199	126.080613
	9.406936	20.053831	77.192114	22.311161	119.557106
	9.160654	22.602415	77.666125	23.107848	123.376388
	9.086770	21.487409	76.718104	22.789174	120.994687
	9.136026	24.035993	78.456142	22.629836	125.121972
	9.062142	20.213117	76.718104	21.514474	118.445695
	9.111398	22.761702	76.244093	21.673811	120.679605
	9.136026	21.965269	76.402096	23.107848	121.475214
	8.865117	21.009550	77.034110	23.904536	121.948196
	9.308423	21.487409	80.668191	21.036461	123.192062
	8.963629	19.575972	75.454076	20.239773	115.269821
	9.234539	20.053831	73.558034	20.877123	114.488988
	8.618835	21.487409	76.244093	22.629836	120.361338
	9.185282	25.788145	81.142202	26.453936	133.384283
	9.259167	24.354567	78.614146	22.470499	125.439211
	8.791232	21.009550	76.718104	22.311161	120.038815
	9.259167	20.213117	74.980065	20.239773	115.432956
	8.988257	24.991712	77.666125	21.036461	123.694298
	9.012885	20.531690	77.034110	22.470499	120.036299
	8.815860	21.168837	74.980065	22.948511	119.097412
	8.988257	16.708815	72.768016	20.877123	110.353954
	8.766604	24.673140	78.930153	24.223211	127.826503
	9.234539	18.460966	75.454076	19.921099	113.836140
	8.963629	24.354567	78.930153	24.382548	127.667268
	9.136026	22.283842	76.560100	21.355136	120.199078
	9.111398	21.965269	78.456142	23.585861	124.007272
	9.308423	21.009550	76.718104	22.629836	120.357490
	8.914373	23.558134	76.244093	22.629836	122.432063
	9.160654	18.779539	75.138069	20.239773	114.157381
	9.062142	20.053831	75.138069	20.239773	115.431673
	9.308423	22.761702	77.824128	23.426524	124.012353
	9.086770	23.398847	77.982132	24.541886	125.922865
	9.012885	21.009550	75.928086	22.151823	119.089460
	8.914373	21.805983	76.560100	22.948511	121.314594
	8.815860	23.876707	77.350118	23.267186	124.494011
	9.456192	20.372404	79.404163	22.948511	122.725078
	8.963629	21.009550	76.086090	21.833149	118.928788
	9.259167	20.531690	74.506055	21.514474	116.552219
	9.111398	23.717420	76.718104	22.948511	123.384035
	9.209910	18.779539	74.664058	19.283748	112.727346
	9.431564	22.920988	79.246160	24.701224	126.868371
	9.480820	21.965269	76.718104	23.585861	122.269234
	8.939001	21.965269	77.508121	21.514474	120.987864
	9.136026	22.602415	79.404163	23.426524	125.433101
	8.988257	25.150999	80.352184	25.816586	131.319769
	9.160654	18.460966	73.716037	20.717786	112.894789
	9.530076	21.646696	76.718104	22.789174	121.153973
	9.086770	21.965269	78.930153	23.904536	124.799958
	9.037514	25.628858	79.088156	25.019899	129.736913
	9.086770	19.735258	76.402096	21.514474	117.651828
	8.988257	23.558134	78.298139	22.629836	124.486109
	9.259167	24.354567	78.772149	21.992486	125.119202
	9.086770	21.328123	77.666125	24.223211	123.217459
	8.766604	21.965269	75.928086	24.860561	122.753916
	9.062142	21.328123	76.718104	22.789174	120.835400
	8.865117	21.168837	77.824128	22.789174	121.782138
	8.988257	21.168837	77.350118	21.673811	120.192765
	9.062142	21.646696	76.876107	23.267186	121.789989
	9.111398	22.602415	75.770083	22.311161	120.683659
	8.865117	22.124555	78.140135	23.267186	123.531877
	9.160654	20.690977	76.718104	21.833149	119.242229
	9.209910	23.876707	77.034110	21.992486	122.903303
	9.136026	17.027387	73.716037	19.124411	109.867836
	9.160654	23.080275	77.508121	25.179236	125.767632
	9.406936	21.009550	77.824128	23.585861	122.419539
	8.815860	24.513853	79.246160	24.382548	128.142561
	9.456192	20.850264	77.508121	22.789174	121.147558
	9.234539	21.328123	76.560100	21.673811	119.562034
	9.406936	23.398847	77.034110	22.948511	123.381469
	9.111398	22.602415	79.562167	23.904536	126.069118
	9.111398	21.965269	77.824128	23.426524	123.215921
	9.185282	21.328123	75.770083	21.992486	119.090692
	9.259167	22.602415	77.350118	22.311161	122.263694
	9.037514	21.487409	76.718104	22.470499	120.676012
	9.136026	20.213117	77.508121	22.948511	120.669749
	9.333051	23.080275	76.402096	21.833149	121.315519
	9.259167	20.053831	75.612079	21.195799	116.861708
	9.431564	20.690977	77.666125	21.833149	120.190250
	9.111398	24.991712	77.824128	23.267186	126.083027
	9.283795	16.549528	71.977998	19.283748	107.811275
	9.111398	22.283842	76.244093	23.107848	121.635783
	9.406936	17.823820	75.138069	20.558449	113.520337
	9.209910	21.646696	77.982132	21.514474	121.143301
	9.283795	19.894544	76.086090	20.717786	116.698420
	9.086770	22.283842	76.560100	22.311161	121.155103
	9.382307	20.372404	75.612079	21.195799	117.180282
	9.111398	19.894544	76.560100	24.701224	121.155868
	9.185282	21.328123	75.770083	23.585861	120.684067
	8.889745	23.398847	77.034110	22.151823	122.584781
	9.111398	20.531690	77.508121	23.426524	121.466335
	8.889745	22.602415	80.668191	23.585861	126.856467
	8.840489	21.009550	77.034110	22.629836	120.673496
	9.012885	21.487409	74.822062	21.833149	118.142619
	8.914373	22.920988	77.982132	23.904536	124.807656
	9.406936	20.531690	76.876107	20.877123	118.284921
	9.037514	22.602415	77.508121	21.514474	121.625010
	9.308423	18.620252	75.454076	22.311161	116.385489
	9.308423	21.805983	75.454076	22.789174	120.049232
	9.333051	20.213117	75.612079	21.195799	117.020995
	9.382307	21.168837	76.086090	21.673811	118.928737
	9.431564	20.372404	78.140135	22.470499	120.983038
	9.209910	22.602415	77.982132	23.904536	124.489083
	9.406936	22.602415	75.138069	21.833149	119.573632
	9.333051	20.690977	76.560100	20.877123	118.128201
	9.456192	20.690977	77.350118	22.311161	120.352256
	9.111398	21.646696	75.296072	21.036461	117.979229
	8.963629	19.735258	76.244093	22.151823	118.131174
	8.815860	22.602415	78.140135	24.701224	125.443773
	9.037514	22.283842	80.352184	27.409961	130.045987
	9.086770	20.053831	74.980065	20.399111	115.433007
	8.963629	24.354567	79.246160	25.019899	128.620625
	8.988257	21.009550	77.508121	22.151823	120.669495
	9.136026	21.805983	75.770083	20.877123	118.453188
	9.136026	21.168837	75.928086	22.948511	120.045434
	9.333051	23.080275	78.140135	24.223211	125.443621
	9.234539	18.779539	73.716037	19.602424	112.098000
	9.160654	21.009550	80.668191	21.992486	123.670227
	9.283795	20.053831	75.928086	21.195799	117.177716
	8.963629	20.372404	73.400030	22.151823	115.924258
	9.308423	21.328123	74.980065	25.179236	121.487424
	9.086770	22.124555	78.140135	23.426524	123.691214
	9.406936	20.213117	77.034110	21.195799	118.443027
	9.086770	24.035993	77.666125	23.107848	124.809967
	9.259167	20.053831	76.244093	23.107848	119.405772
	8.988257	21.328123	76.876107	22.151823	120.356054
	9.308423	20.531690	76.876107	22.311161	119.718958
	9.012885	22.283842	75.612079	22.629836	120.525757
	9.086770	20.053831	75.454076	20.877123	116.385030
	8.889745	21.009550	75.612079	21.514474	118.136102
	8.914373	23.876707	79.404163	24.382548	127.663418
	8.840489	20.213117	76.244093	22.789174	119.246384
	8.815860	24.673140	78.930153	25.497911	129.101203
	8.914373	20.531690	75.770083	21.992486	118.294259
	8.914373	21.965269	77.982132	23.585861	123.533262
	9.333051	20.213117	76.876107	21.673811	118.763036
	9.136026	22.761702	78.298139	24.223211	125.283051
	9.406936	20.690977	73.400030	19.761761	113.852768
	9.037514	21.168837	76.876107	21.992486	120.037430
	9.209910	18.938826	75.138069	19.443086	113.519980
	8.889745	22.761702	73.242027	20.239773	116.243502
	9.185282	19.894544	76.244093	22.948511	119.087148
	8.889745	22.602415	77.192114	26.294599	126.089128
	9.333051	19.894544	79.720170	22.789174	122.403888
	8.766604	20.850264	76.876107	21.673811	119.400182
	9.160654	21.646696	75.770083	22.948511	120.365289
	8.791232	23.398847	77.350118	23.904536	124.653501
	8.865117	22.443129	77.666125	23.426524	123.535777
	8.939001	22.124555	78.140135	23.267186	123.531877
	8.963629	20.690977	77.034110	22.470499	120.195586
	9.086770	23.876707	76.718104	22.151823	122.746634
	8.840489	20.531690	78.140135	22.311161	120.982986
	8.963629	22.124555	77.350118	24.063874	123.538547
	8.963629	21.646696	75.138069	25.975924	122.760688
	9.209910	19.575972	74.506055	20.558449	114.640475
	8.963629	21.487409	76.560100	22.151823	120.199333
	8.865117	19.098112	78.456142	21.036461	118.590715
	9.012885	24.832426	77.824128	23.267186	125.923740
	9.259167	18.460966	73.084023	20.558449	112.103437
	9.037514	22.761702	76.876107	23.426524	123.064332
	9.111398	19.098112	75.612079	20.558449	115.268639
	9.012885	23.558134	78.930153	22.629836	125.118123
	9.136026	20.372404	76.560100	22.151823	119.084328
	9.086770	21.328123	75.928086	23.904536	121.160745
	9.136026	22.443129	76.560100	24.063874	123.067102
	8.791232	21.009550	77.824128	22.151823	120.985501
	9.086770	22.761702	76.718104	24.063874	123.543679
	9.012885	24.354567	76.876107	22.470499	123.701172
	8.791232	18.779539	76.244093	22.629836	117.653468
	8.815860	22.443129	79.404163	23.426524	125.273815
	9.012885	20.372404	76.560100	22.311161	119.243665
	8.963629	22.124555	76.402096	23.267186	121.793838
	9.136026	21.965269	77.034110	22.948511	121.947890
	8.963629	22.920988	78.614146	23.426524	124.961657
	8.939001	23.876707	77.982132	24.223211	126.082050
	8.988257	20.531690	76.402096	24.860561	121.794348
	8.939001	19.416685	74.506055	21.673811	115.596551
	9.209910	21.805983	77.034110	20.239773	119.079866
	8.963629	20.690977	77.508121	23.585861	121.784959
	9.234539	22.124555	75.612079	22.948511	120.685145
	8.865117	20.531690	75.454076	21.992486	117.978252
	9.160654	20.690977	76.086090	22.151823	118.928890
	8.963629	24.354567	81.774216	25.657249	131.786031
	9.209910	19.735258	75.770083	20.239773	115.745114
	9.037514	25.469572	76.086090	23.745199	125.300860
	9.283795	18.938826	74.348051	22.789174	116.076050
	9.062142	21.168837	75.612079	25.179236	121.960151
	9.185282	20.850264	77.192114	21.514474	119.556851
	8.815860	21.487409	77.034110	22.311161	120.832681
	9.111398	20.053831	75.612079	22.470499	118.136409
	8.914373	23.080275	78.456142	24.223211	125.759628
	8.988257	23.080275	77.192114	22.789174	123.061562
	9.062142	22.920988	77.350118	24.541886	124.812992
	9.012885	20.213117	75.928086	21.514474	117.655677
	8.840489	21.328123	75.612079	20.717786	117.657988
	9.111398	23.239561	82.880240	25.179236	131.299037
	9.012885	23.717420	79.562167	26.294599	129.574185
	9.111398	22.443129	77.350118	27.887974	127.681220
	8.988257	24.513853	77.982132	24.860561	127.356546
	8.692720	21.487409	77.508121	22.151823	121.147354
	8.889745	23.398847	78.772149	24.382548	126.553545
	8.692720	24.354567	78.298139	24.223211	126.875916
	9.136026	21.328123	77.350118	23.585861	122.264102
	9.136026	21.168837	77.666125	22.629836	121.464797
	8.963629	20.850264	76.244093	21.833149	118.927505
	8.865117	20.850264	75.770083	22.151823	118.772169
	9.185282	17.823820	73.400030	19.124411	110.348261
	9.382307	21.168837	76.402096	22.789174	120.360107
	9.209910	20.213117	75.138069	23.585861	118.937047
	9.086770	23.080275	78.614146	25.497911	127.192331
	9.086770	20.372404	75.612079	20.877123	116.861606
	8.988257	23.876707	76.560100	23.107848	123.544656
	9.062142	18.779539	75.770083	21.833149	116.382770
	8.914373	22.124555	77.192114	23.267186	122.583855
	9.357679	20.690977	77.192114	22.948511	120.831602
	8.815860	22.920988	77.666125	23.426524	124.013636
	9.111398	21.328123	78.614146	22.311161	122.253430
	8.741976	21.328123	77.824128	22.470499	121.622750
	8.889745	24.513853	76.402096	25.019899	125.935848
	8.668092	20.372404	77.192114	25.338573	122.903092
	9.185282	22.920988	78.298139	23.585861	124.804988
	9.062142	19.098112	78.930153	20.877123	118.905388
	8.840489	21.328123	77.192114	23.107848	121.628086
	9.160654	18.301680	72.452009	19.921099	110.674787
	8.988257	23.558134	77.824128	24.701224	126.083485
	9.677845	22.443129	77.034110	22.151823	121.629063
	8.988257	21.009550	77.982132	22.151823	121.143505
	9.160654	18.938826	75.454076	19.921099	114.314000
	8.963629	26.106718	77.508121	22.948511	126.563350
	9.382307	19.098112	77.508121	21.992486	118.598719
	9.086770	22.761702	78.140135	26.135261	127.037098
	9.308423	19.735258	74.980065	22.470499	117.185822
	8.963629	21.646696	77.034110	21.355136	120.035942
	9.136026	19.416685	76.560100	22.470499	118.447284
	9.037514	21.009550	76.560100	22.311161	119.880811
	9.037514	23.239561	78.614146	24.860561	126.714268
	9.160654	22.283842	77.666125	24.223211	124.173178
	9.111398	21.487409	78.140135	22.948511	122.576055
	9.037514	22.920988	76.560100	21.514474	120.995562
	8.988257	19.575972	74.980065	20.877123	115.433160
	8.939001	21.328123	77.034110	22.948511	121.310744
	8.815860	21.487409	77.192114	25.816586	124.496110
	8.963629	19.894544	77.350118	21.833149	119.077810
	8.963629	21.965269	77.824128	22.151823	121.941221
	9.012885	17.345961	72.294006	18.805736	108.445702
	8.741976	25.788145	79.088156	25.019899	129.896200
	9.259167	19.735258	77.192114	23.107848	120.035221
	8.741976	21.805983	78.772149	22.470499	123.048630
	9.185282	20.531690	77.982132	22.789174	121.302996
	8.889745	21.487409	75.454076	21.514474	118.455959
	9.136026	23.239561	78.614146	25.179236	127.032943
	8.914373	22.602415	78.930153	24.860561	126.393129
	8.865117	22.602415	78.140135	23.585861	124.328411
	8.791232	21.328123	77.666125	22.470499	121.464746
	8.594207	20.372404	75.770083	21.673811	117.816298
	8.865117	23.876707	79.878174	24.223211	127.978092
	8.939001	18.779539	75.928086	20.877123	115.584749
	9.086770	22.124555	76.086090	23.267186	121.477831
	8.815860	18.460966	74.822062	20.717786	114.000814
	9.111398	21.328123	77.192114	22.629836	121.150073
	8.766604	22.602415	78.140135	23.585861	124.328411
	8.668092	19.894544	75.770083	20.717786	116.382413
	8.643463	24.195280	76.876107	22.789174	123.860561
	8.988257	17.345961	75.138069	22.629836	115.113865
	8.914373	21.168837	76.560100	22.789174	120.518110
	9.086770	18.620252	72.926020	17.371699	108.917971
	8.569579	21.646696	78.298139	23.585861	123.530696
	8.766604	21.805983	78.298139	22.789174	122.893295
	8.569579	21.646696	79.246160	22.948511	123.841366
	8.889745	21.328123	78.140135	23.426524	122.894782
	8.618835	21.328123	76.876107	22.470499	120.674729
	8.692720	21.965269	77.350118	22.311161	121.626548
	8.717348	23.876707	77.666125	21.514474	123.057305
	8.741976	22.443129	78.456142	24.063874	124.963144
	8.988257	21.168837	77.034110	24.860561	123.063508
	8.741976	21.805983	77.034110	22.948511	121.788604
	8.939001	20.850264	76.402096	20.877123	118.129483
	8.791232	23.717420	79.562167	23.745199	127.024786
	9.012885	21.487409	77.508121	21.833149	120.828679
	8.963629	24.832426	78.298139	22.948511	126.079076
	9.062142	20.213117	76.876107	21.833149	118.922373
	8.865117	22.283842	78.614146	21.992486	122.890473
	8.939001	21.009550	77.192114	20.399111	118.600775
	8.939001	21.168837	75.928086	21.673811	118.770734
	8.963629	22.920988	78.930153	24.701224	126.552364
	8.914373	21.646696	77.508121	24.860561	124.015378
	9.012885	22.602415	77.350118	21.195799	121.148331
	8.717348	22.602415	78.298139	21.992486	122.893040
	8.840489	23.080275	77.666125	22.789174	123.535573
	8.840489	24.195280	79.404163	21.992486	125.591929
	8.988257	22.283842	78.772149	22.948511	124.004502
	8.963629	23.239561	76.876107	23.107848	123.223517
	8.914373	24.195280	78.930153	23.904536	127.029968
	8.963629	19.735258	76.244093	20.080436	116.059787
	8.520323	27.062437	83.038244	25.019899	135.120579
	8.914373	21.009550	76.876107	20.080436	117.966093
	8.126273	25.469572	77.824128	24.382548	127.676248
	8.544951	24.673140	79.246160	23.904536	127.823835
	8.249413	33.752470	86.198314	26.453936	146.404720
	8.544951	35.345335	83.038244	26.613274	144.996852
	7.658338	36.938200	87.778349	29.162674	153.879222
	7.806107	41.398222	89.200380	29.959361	160.557963
	7.658338	44.743238	93.940485	30.756049	169.439772
	7.288916	47.769682	93.782482	31.393399	172.945562
	6.870238	49.999693	92.834461	31.074724	173.908877
	6.747097	52.548277	95.204513	31.871411	179.624201
	6.525444	56.211866	95.362517	31.552736	183.127119
	6.254535	54.141142	96.942552	34.580149	185.663842
	6.229906	53.663283	94.730503	30.915386	179.309171
	5.811228	56.371153	95.678523	31.234061	183.283738
	5.885113	51.911131	92.992464	28.684661	173.588256
	6.082138	54.459715	94.572499	30.437373	179.469588
	5.909741	50.796125	92.676457	27.728636	171.201218
	5.663459	54.459715	93.150468	29.003336	176.613518
	5.737344	48.566114	89.832394	26.453936	164.852444
	5.392550	45.858244	89.358384	24.223211	159.439839
	5.515691	46.176817	87.304338	23.745199	157.226354
	5.269409	41.079649	84.302272	22.948511	148.330432
	5.170897	41.557508	85.566300	26.931949	154.055757
	5.220153	37.893919	83.512254	22.629836	144.036009
	5.195525	35.504621	83.354251	18.327724	137.186596
	5.170897	34.071043	80.510188	19.124411	133.705642
	5.023128	34.548902	80.510188	19.761761	134.820851
	5.417178	28.336729	75.138069	14.344286	117.819084
	5.072384	29.611021	77.350118	16.734348	123.695487
	5.441806	26.903150	72.926020	14.344286	114.173456
	5.023128	30.726026	76.086090	15.778324	122.590440
	5.047756	25.947432	74.980065	15.140974	116.068470
	5.023128	27.381010	77.824128	14.184949	119.390087
	5.047756	25.628858	74.506055	15.937661	116.072574
	4.924616	26.584578	71.977998	16.256336	114.818912
	4.752219	25.310286	72.136002	11.954224	109.400511
	4.702962	28.177443	74.980065	14.662961	117.820469
	4.801475	31.522459	77.192114	16.415674	125.130246
	4.752219	29.770307	76.402096	15.937661	122.110065
	4.579822	31.203886	75.296072	15.937661	122.437619
	4.505937	32.159605	75.928086	15.140974	123.228665
	4.579822	33.433897	77.824128	15.140974	126.398999
	4.579822	33.433897	74.348051	14.344286	122.126234
	4.333540	37.097487	78.930153	17.371699	133.399338
	4.382797	37.416059	76.402096	17.849711	131.667867
	4.161143	38.371778	80.510188	16.893686	135.775652
	4.136515	37.416059	77.666125	13.706936	128.789120
	3.865606	42.513227	79.404163	18.168386	140.085777
	4.284284	37.734632	77.824128	15.459649	131.018409
	3.939490	42.194654	80.826194	17.531036	140.551885
	4.382797	38.690351	80.826194	16.415674	135.932220
	4.013375	41.876081	79.878174	16.575011	138.329266
	4.333540	40.442503	79.246160	16.575011	136.263673
	3.791721	41.238935	80.668191	15.937661	137.844787
	3.964118	43.946806	81.300205	16.893686	142.140697
	3.964118	39.646071	76.402096	15.937661	131.985828
	3.865606	39.327497	77.192114	15.778324	132.297935
	3.939490	39.805357	76.402096	11.794886	128.002340
	3.668581	40.442503	82.090223	16.256336	138.789062
	3.964118	36.778913	76.560100	13.069586	126.408599
	3.840978	37.416059	74.822062	13.706936	125.945057
	3.742465	36.141768	74.190048	12.750911	123.082726
	3.643953	38.531065	77.192114	14.184949	129.908128
	3.693209	35.026762	74.348051	10.679524	120.054336
	3.446928	40.123930	76.086090	12.113561	128.323581
	3.890234	36.938200	75.770083	11.954224	124.662506
	3.619325	39.008924	77.824128	15.300311	132.133364
	3.619325	37.256773	75.454076	13.706936	126.417785
	3.373043	38.849638	75.612079	11.635549	126.097265
	3.520812	38.849638	76.876107	13.706936	129.432681
	3.471556	39.646071	76.402096	13.069586	129.117753
	3.496184	42.035368	80.984198	14.184949	137.204514
	3.200646	39.327497	77.666125	13.228924	130.222545
	3.200646	38.849638	73.400030	11.635549	123.885216
	3.249903	41.716795	75.770083	11.954224	129.441101
	3.274531	38.531065	76.244093	11.794886	126.570044
	3.545440	39.964643	77.982132	12.910248	130.857023
	3.274531	38.371778	75.928086	15.140974	129.440838
	3.151390	38.212492	72.136002	10.042174	120.390667
	3.151390	42.035368	78.930153	13.069586	134.035106
	3.668581	43.150374	80.036177	15.618986	138.805536
	3.496184	45.698957	77.666125	15.618986	138.984068
	3.299159	37.575346	75.612079	11.635549	124.822973
	3.077506	41.398222	76.876107	13.547599	131.821927
	3.471556	40.123930	77.824128	11.954224	129.902282
	3.767093	38.371778	75.612079	11.157536	125.141393
	3.299159	39.486784	74.980065	11.316874	125.783722
	3.348415	39.646071	74.348051	10.520186	124.514308
	3.299159	40.442503	76.086090	13.706936	130.235529
	3.126762	40.761076	76.086090	13.706936	130.554102
	3.520812	39.964643	76.244093	10.838861	127.047597
	3.102134	42.513227	76.086090	11.635549	130.234866
	3.299159	40.442503	78.772149	12.910248	132.124900
	3.077506	40.920362	76.244093	11.794886	128.959341
	3.151390	40.920362	74.664058	12.272899	127.857319
	3.176018	40.601790	77.034110	12.910248	130.546148
	3.397671	40.601790	76.244093	11.954224	128.800106
	3.176018	40.123930	77.982132	11.316874	129.422935
	2.905109	41.557508	75.138069	9.882836	126.578413
	3.102134	37.416059	72.136002	11.635549	121.187610
	2.978993	39.805357	74.032044	12.591574	126.428974
	3.225274	41.079649	75.296072	8.608136	124.983857
	3.028249	37.416059	74.822062	9.564161	121.802282
	3.102134	39.964643	76.086090	11.157536	127.208269
	2.929737	41.716795	76.876107	12.591574	131.184475
	3.496184	39.008924	74.348051	9.245486	122.602462
	2.978993	40.442503	77.034110	11.316874	128.793487
	3.545440	38.371778	72.768016	9.245486	120.385280
	2.781968	42.035368	74.190048	9.245486	125.470901
	3.077506	37.256773	74.190048	9.723499	121.170319
	2.905109	44.106093	82.248226	16.734348	143.088667
	3.151390	38.690351	74.980065	11.794886	125.465302
	2.683456	35.982481	71.029978	5.580724	112.593182
	2.732712	38.371778	73.716037	9.086149	121.173964
	2.683456	40.283216	75.928086	11.316874	127.528176
	2.781968	41.398222	75.296072	11.954224	128.648518
	2.757340	39.168211	75.138069	10.520186	124.826465
	2.535687	41.238935	76.244093	11.635549	129.118577
	3.274531	39.008924	73.716037	7.652111	120.377073
	2.634199	39.327497	74.032044	9.723499	123.083040
	2.781968	37.416059	71.661992	6.696086	115.774137
	2.658827	40.920362	74.980065	11.316874	127.217301
	2.855852	36.778913	73.716037	9.882836	120.377786
	2.683456	40.123930	74.980065	10.201511	125.305506
	3.028249	37.734632	74.348051	9.086149	121.168832
	2.511059	43.628233	75.770083	11.954224	131.352539
	2.806596	38.531065	75.138069	10.201511	123.870644
	2.584943	40.601790	75.612079	10.998199	127.212067
	2.708084	41.079649	73.874041	10.520186	125.473875
	2.683456	38.849638	74.822062	9.882836	123.554535
	2.535687	40.920362	75.612079	10.360849	126.893290
	2.781968	40.601790	76.876107	10.360849	127.838745
	2.806596	40.442503	74.190048	10.998199	125.630749
	2.806596	39.327497	73.084023	11.635549	124.047069
	2.905109	38.849638	73.242027	7.174099	119.265763
	2.806596	40.601790	72.926020	7.970786	121.498595
	2.683456	39.327497	77.666125	10.520186	127.513808
	2.905109	37.416059	72.452009	7.333436	117.201504
	2.880481	38.690351	72.926020	9.882836	121.499207
	2.954365	36.619627	70.555967	7.014761	114.190355
	2.781968	42.831800	77.666125	12.113561	132.611486
	2.806596	39.964643	74.190048	9.564161	123.718852
	2.757340	42.035368	75.612079	9.564161	127.211608
	3.077506	40.920362	76.718104	12.272899	129.911365
	2.363290	42.831800	78.456142	13.866274	135.154216
	2.584943	41.398222	74.348051	8.448799	124.195072
