LabVIEW Measurement	
Writer_Version	2
Reader_Version	2
Separator	Tab
Decimal_Separator	.
Multi_Headings	No
X_Columns	No
Time_Pref	Absolute
Operator	lvuser
Date	2021/05/07
Time	12:57:06.408955487
***End_of_Header***	
	
Channels	5					
Samples	2000	2000	2000	2000	2000	
Date	2021/05/07	2021/05/07	2021/05/07	2021/05/07	2021/05/07	
Time	12:57:06.4089555370585883856	12:57:06.408955487	12:57:06.408955487	12:57:06.408955487	12:57:06.408955487	
Y_Unit_Label	Volts	Volts	Volts	Volts	Volts	
X_Dimension	Time	Time	Time	Time	Time	
X0	0.0000000000000000E+0	0.0000000000000000E+0	0.0000000000000000E+0	0.0000000000000000E+0	0.0000000000000000E+0	
Delta_X	0.001000	0.001000	0.001000	0.001000	0.001000	
***End_of_Header***						
X_Value	cisnienieKomoraGorna	sila1	sila2	sila3	sila1 1	Comment
	13.569090	1.258024	46.065425	-7.006939	40.316510
	1.919983	0.780165	47.487456	-8.759652	39.507969
	2.117009	-0.494128	42.905355	-12.902427	29.508801
	2.018496	-0.334841	47.803463	-5.254227	42.214396
	1.993868	-0.016268	47.013446	-8.440977	38.556201
	1.895355	-0.334841	46.381432	-9.397001	36.649589
	1.944612	-2.564852	45.749418	-11.149714	32.034852
	2.043124	-0.494128	46.697439	-8.281639	37.921672
	2.387918	0.620878	47.961467	-9.237664	39.344681
	1.895355	1.098737	49.541502	-6.847602	43.792638
	2.363290	-3.201998	46.381432	-11.309052	31.870382
	2.092380	0.143018	46.381432	-10.990377	35.534073
	2.092380	-2.086993	44.643393	-10.353027	32.203374
	1.846099	-0.175555	46.223428	-9.556339	36.491535
	2.092380	-0.016268	45.907421	-9.556339	36.334814
	2.117009	-1.131274	44.801397	-9.715677	33.954447
	2.338662	-2.405565	45.907421	-10.353027	33.148829
	1.649074	1.895170	47.487456	-7.962964	41.419662
	2.264777	-3.839144	45.117404	-10.831039	30.447221
	1.722958	1.417310	48.593481	-9.556339	40.454452
	2.240149	-1.449847	45.275407	-11.309052	32.516509
	1.599818	-0.334841	47.487456	-9.397001	37.755614
	2.092380	-3.361285	44.801397	-8.122302	33.317811
	1.895355	2.213743	48.435477	-7.006939	43.642281
	1.821471	-2.405565	43.379365	-10.831039	30.142761
	1.846099	-0.016268	46.855442	-10.034352	36.804823
	2.092380	-2.246279	43.063358	-11.309052	29.508028
	1.846099	-1.131274	46.855442	-9.556339	36.167830
	2.240149	-1.609133	47.961467	-9.397001	36.955332
	1.895355	0.780165	47.487456	-7.803627	40.463994
	2.264777	-1.131274	45.749418	-9.556339	35.061805
	1.624446	-0.334841	46.539435	-8.600314	37.604280
	1.969240	-0.971987	45.907421	-10.831039	34.104395
	1.821471	2.213743	47.013446	-10.193689	39.033500
	1.772215	-1.768420	47.329453	-8.759652	36.801382
	1.550562	-0.494128	50.173516	-9.397001	40.282387
	1.993868	-0.971987	47.487456	-6.847602	39.667868
	1.846099	0.939451	47.487456	-8.281639	40.145268
	1.969240	-1.131274	45.275407	-8.918989	35.225145
	1.772215	0.461591	46.223428	-10.671702	36.013318
	2.166265	3.328748	49.067491	-6.528927	45.867313
	1.895355	-0.971987	47.171449	-8.759652	37.439811
	1.993868	-2.086993	47.171449	-10.671702	34.412755
	1.772215	0.143018	47.013446	-7.962964	39.193500
	1.944612	0.143018	47.013446	-8.122302	39.034163
	1.821471	0.302305	47.487456	-8.122302	39.667460
	1.944612	1.417310	46.855442	-10.671702	37.601051
	1.993868	0.143018	45.591414	-6.528927	39.205506
	2.092380	-1.927706	46.539435	-8.759652	35.852078
	1.870727	-0.016268	47.803463	-8.918989	38.868206
	1.969240	-1.927706	45.433411	-9.875014	33.630691
	1.796843	0.302305	47.487456	-9.397001	38.392760
	2.117009	-1.131274	46.223428	-9.397001	35.695153
	1.673702	2.532316	47.329453	-9.397001	40.464767
	1.821471	-2.405565	44.959400	-8.759652	33.794183
	1.747587	1.417310	48.909488	-7.484952	42.841847
	1.993868	-0.812701	48.277474	-9.237664	38.227109
	2.043124	-0.971987	47.329453	-9.397001	36.960464
	1.821471	-2.405565	45.907421	-11.468389	32.033467
	1.649074	-0.812701	45.907421	-9.556339	35.538382
	1.796843	0.143018	46.065425	-11.309052	34.899392
	1.575190	0.461591	46.855442	-8.440977	38.876057
	2.018496	-0.016268	48.435477	-7.803627	40.615583
	1.796843	-0.334841	49.541502	-9.715677	39.490984
	1.870727	-2.405565	45.749418	-8.918989	34.424863
	1.673702	-0.812701	46.381432	-10.034352	35.534380
	1.993868	-0.971987	45.907421	-9.078327	35.857108
	1.870727	1.895170	46.855442	-10.353027	38.397586
	2.067752	-3.201998	43.695372	-11.309052	29.184323
	1.821471	-1.609133	46.697439	-9.397001	35.691304
	1.993868	-2.086993	47.329453	-10.831039	34.411421
	1.969240	1.098737	47.803463	-7.006939	41.895262
	2.117009	-0.812701	46.381432	-8.918989	36.649742
	1.796843	-1.768420	45.433411	-10.034352	33.630640
	2.215521	-1.290560	44.643393	-12.902427	30.450407
	2.043124	1.258024	48.277474	-8.918989	40.616509
	2.043124	-1.768420	47.013446	-9.556339	35.688687
	1.821471	-1.131274	49.225495	-10.353027	37.741195
	1.919983	-1.768420	46.855442	-8.281639	36.805384
	1.796843	-0.971987	46.381432	-9.875014	35.534431
	1.993868	0.939451	46.697439	-8.918989	38.717900
	1.599818	1.576597	48.119470	-8.600314	41.095753
	1.796843	-1.768420	46.539435	-7.644289	37.126727
	1.575190	-1.290560	46.697439	-9.875014	35.531865
	1.772215	-0.334841	49.383498	-8.918989	40.129668
	1.722958	-1.449847	46.539435	-9.397001	35.692587
	1.649074	-2.246279	47.487456	-9.715677	35.525501
	1.698330	2.213743	47.487456	-8.600314	41.100885
	1.944612	0.461591	46.855442	-10.353027	36.964007
	1.821471	-0.971987	46.223428	-8.759652	36.491790
	1.796843	-0.653414	48.119470	-8.122302	39.343755
	1.624446	1.098737	50.963533	-8.122302	43.939969
	1.944612	-0.016268	48.277474	-5.254227	43.006979
	1.525933	-0.016268	46.855442	-9.237664	37.601510
	1.895355	0.143018	45.907421	-8.918989	37.131451
	1.796843	1.258024	46.697439	-10.034352	37.921111
	1.969240	-2.086993	45.433411	-10.193689	33.152729
	1.969240	1.258024	49.067491	-7.006939	43.318576
	1.870727	-0.971987	47.961467	-10.034352	36.955128
	2.190893	-0.016268	46.697439	-7.484952	39.196219
	1.895355	-1.449847	46.381432	-9.556339	35.375246
	2.043124	-3.042711	43.853376	-11.468389	29.342275
	1.895355	1.417310	47.487456	-8.759652	40.145115
	1.649074	0.143018	49.067491	-9.237664	39.972846
	2.141637	-1.131274	47.487456	-8.600314	37.755869
	1.599818	-1.290560	48.277474	-11.468389	35.518525
	1.772215	-0.334841	47.329453	-5.732239	41.262373
	1.747587	0.620878	47.645460	-8.600314	39.666024
	1.870727	0.302305	44.327386	-10.671702	33.957990
	1.722958	0.780165	47.329453	-9.715677	38.393941
	1.821471	0.461591	47.961467	-7.166277	41.256782
	1.722958	0.302305	47.487456	-8.918989	38.870772
	1.944612	0.780165	49.067491	-8.600314	41.247342
	1.649074	-0.016268	46.855442	-7.962964	38.876210
	1.821471	-1.290560	45.907421	-8.759652	35.857210
	1.772215	2.213743	47.013446	-8.600314	40.626875
	1.673702	1.417310	48.277474	-8.918989	40.775795
	1.673702	-0.812701	45.907421	-11.309052	33.785669
	1.919983	-0.334841	47.329453	-8.440977	38.553635
	1.772215	0.302305	49.699505	-10.353027	39.648784
	1.846099	-0.334841	47.171449	-6.050914	40.785694
	1.624446	-1.609133	45.433411	-10.512364	33.311914
	1.821471	2.373029	45.749418	-8.600314	39.522133
	1.673702	0.939451	47.171449	-8.440977	39.669924
	1.747587	1.098737	49.225495	-7.484952	42.839281
	1.624446	-0.971987	46.539435	-9.556339	36.011109
	1.895355	-0.971987	47.171449	-10.512364	35.687098
	2.067752	-0.016268	46.539435	-8.759652	37.763516
	1.796843	1.417310	48.593481	-7.325614	42.685177
	1.846099	2.213743	47.487456	-8.122302	41.578898
	1.821471	2.691602	47.961467	-7.325614	43.327455
	2.215521	-2.246279	46.855442	-11.309052	33.300112
	1.870727	-1.768420	45.907421	-10.353027	33.785975
	2.117009	-2.564852	45.275407	-13.221101	29.489454
	1.846099	1.735883	48.435477	-8.440977	41.730384
	1.895355	-0.812701	46.381432	-10.034352	35.534380
	1.649074	2.213743	45.117404	-9.875014	37.456133
	1.846099	-0.812701	46.539435	-8.759652	36.967083
	2.043124	0.302305	47.013446	-8.122302	39.193449
	1.969240	1.098737	48.277474	-7.803627	41.572585
	1.796843	0.780165	49.067491	-9.078327	40.769329
	1.919983	-0.016268	46.697439	-8.281639	38.399532
	1.673702	-1.927706	46.065425	-9.556339	34.581380
	2.067752	2.054456	46.223428	-9.875014	38.402871
	2.067752	1.258024	47.487456	-8.440977	40.304504
	2.190893	-0.175555	48.909488	-9.078327	39.655607
	2.338662	0.620878	48.435477	-7.962964	41.093391
	3.126762	0.780165	51.121537	-9.556339	42.345362
	3.890234	4.284467	51.121537	-4.616877	50.789128
	4.505937	2.213743	48.909488	-7.484952	43.638279
	5.441806	6.355192	48.909488	-6.050914	49.213766
	7.067263	7.151625	52.859575	-2.067477	57.943723
	8.668092	5.240187	52.543568	-3.979527	53.804228
	10.465945	7.629484	52.543568	-3.820189	56.352863
	11.475699	10.496641	55.861642	-1.430127	64.928156
	12.214543	11.770933	55.071624	-0.792777	66.049781
	12.214543	12.885939	56.967666	1.437949	71.291553
	12.978015	14.160231	56.019645	0.641261	70.821137
	13.347437	21.805983	62.813796	7.970786	92.590564
	14.578844	19.735258	63.761817	7.174099	90.671173
	15.366944	23.876707	65.183848	9.564161	98.624716
	16.524466	27.381010	66.289873	11.954224	105.625106
	20.120174	31.044600	70.081957	13.388261	114.514817
	24.257700	31.681745	71.819995	16.575011	120.076752
	28.715393	42.513227	76.718104	22.151823	141.383155
	33.197714	41.238935	80.194181	27.409961	148.843077
	36.202347	45.221098	84.934286	28.047311	158.202695
	39.551774	47.291822	84.934286	29.640686	161.866794
	41.792935	55.574720	93.624478	36.332861	185.532060
	44.945337	58.441877	95.678523	40.634974	194.755374
	48.787327	64.654051	100.260625	45.733774	210.648450
	51.545679	69.591933	103.420695	48.442511	221.455139
	54.205519	74.211241	111.004863	57.365411	242.581515
	59.475942	75.644819	114.322937	57.365411	247.333167
	65.091160	82.175566	118.905038	63.101561	264.182165
	70.780263	86.794875	126.963217	67.722348	281.480440
	74.277460	97.148497	134.073374	78.875974	310.097845
	77.429864	99.697081	135.969416	82.381399	318.047896
	79.547885	108.457838	142.763567	90.507611	341.729016
	81.000947	108.298552	148.767700	97.996473	355.062725
	82.010701	119.289321	157.931903	106.282024	383.503247
	83.857813	124.067916	163.936036	112.496186	400.500137
	85.483271	133.943679	174.364267	122.215774	430.523719
	86.591538	141.270858	182.106438	132.094699	455.471994
	89.128239	149.394469	190.638627	141.176936	481.210032
	92.526925	161.818816	200.908855	152.489899	515.217569
	95.728586	170.738860	211.337086	164.918224	546.994169
	98.486940	180.296050	224.451376	175.912511	580.659937
	99.890745	190.808959	232.667558	185.632099	609.108616
	100.777359	202.118301	242.463775	197.423074	642.005149
	100.555706	215.816939	255.262059	209.851399	680.930397
	98.979503	223.303405	264.268258	219.092974	706.664637
	97.427929	235.887039	272.800447	228.175211	736.862697
	95.654701	242.258499	282.280657	240.922211	765.461367
	94.743459	249.267105	289.390815	244.586974	783.244892
	91.837336	259.461441	297.290990	253.350536	810.102966
	90.064109	260.576446	299.029028	252.553849	812.159323
	87.428896	266.788619	305.033161	260.361386	832.183167
	85.557156	270.133636	304.875158	260.680061	835.688855
	83.734672	274.912231	309.299256	263.866811	848.078298
	82.429380	268.700057	306.771200	261.476749	836.948005
	77.035814	273.637939	310.405280	264.026148	848.069368
	76.666391	270.452209	308.825245	261.158074	840.435528
	72.725887	269.496490	310.563284	257.971324	838.031097
	70.435469	264.558608	304.717154	256.059274	825.335036
	69.573483	263.762176	299.819046	251.279148	814.860370
	64.820250	254.523559	294.604930	246.180349	795.308838
	60.436440	251.974975	292.550885	244.268299	788.794158
	55.880233	246.399947	286.388748	238.213474	771.002169
	52.432293	241.780639	282.912671	233.274011	757.967321
	47.999227	233.338455	276.750535	225.307136	735.396125
	44.625171	228.082000	270.588398	222.120386	720.790784
	40.881694	224.577697	264.426262	215.906224	704.910182
	37.901689	215.179793	257.158101	207.461336	679.799230
	34.626146	208.808334	253.366017	204.911936	667.086286
	32.631267	201.321868	247.045877	195.829699	644.197443
	31.990935	194.791122	239.461709	189.137524	623.390354
	27.681011	187.782515	234.089590	181.329986	603.202091
	25.021173	183.003920	227.137436	175.434499	585.575855
	23.223319	178.384612	220.343285	170.973049	569.700946
	18.420832	170.101714	211.811096	162.846836	544.759646
	16.253557	156.084502	202.646893	155.676649	514.408044
	13.938512	155.925215	199.960834	150.259174	506.145223
	12.017518	145.412306	191.270641	140.539586	477.222534
	10.121151	136.651549	182.580449	130.182649	449.414646
	8.618835	126.775786	173.258242	122.375111	422.409139
	7.165776	126.138640	167.886123	117.754324	411.779087
	6.599328	114.192153	160.775966	108.990761	383.958879
	4.505937	109.254271	154.929836	104.210636	368.394743
	2.584943	102.404952	147.819679	96.243761	346.468391
	1.427421	96.670637	141.973549	89.870261	328.514448
	1.082627	87.272734	137.233444	80.150674	304.656852
	0.393039	83.290572	128.227245	74.255186	285.773002
	1.131883	77.556258	122.223112	69.793736	269.573105
	1.476677	69.432646	115.428961	63.260898	248.122506
	2.437174	63.061186	110.214846	58.162099	231.438130
	2.511059	58.282591	103.420695	50.832574	212.535859
	3.052878	52.388990	100.260625	46.849136	199.498752
	2.781968	47.132536	95.204513	39.838286	182.175335
	2.880481	43.150374	90.306405	36.810874	170.267652
	2.166265	42.672514	86.672324	34.102136	163.446974
	1.870727	34.389616	82.090223	28.843999	145.323837
	0.836346	34.230329	81.458208	28.843999	144.532536
	1.057999	29.929594	78.456142	23.904536	132.290272
	1.402793	28.814589	76.086090	21.355136	126.255814
	1.624446	22.761702	72.610012	15.937661	111.309375
	2.412546	23.717420	70.239960	15.140974	109.098354
	2.437174	22.283842	67.553900	14.025611	103.863353
	2.387918	18.620252	64.077824	11.316874	94.014950
	2.560315	15.753096	64.077824	12.910248	92.741168
	1.919983	16.230955	63.919820	9.245486	89.396261
	2.240149	14.956663	61.233761	7.811449	84.001872
	0.590064	14.638090	60.601747	7.333436	82.573273
	1.279652	16.549528	61.075757	7.970786	85.596071
	1.082627	15.115949	55.545635	3.668674	74.330258
	1.353536	11.930219	54.281607	2.393974	68.605800
	1.772215	13.682371	55.229628	4.784036	73.696035
	2.289405	12.567366	54.913621	1.437949	68.918935
	2.215521	11.930219	51.911554	-0.155427	63.686347
	2.166265	11.452360	54.281607	-1.748802	63.985165
	2.412546	14.319517	50.331519	-2.864164	61.786872
	2.363290	13.363798	49.857509	0.163249	63.384555
	1.673702	11.133787	48.119470	-2.545489	56.707768
	1.427421	11.611647	48.593481	0.481924	60.687051
	1.304280	10.974500	45.749418	-3.979527	52.744392
	1.525933	11.133787	46.855442	-4.298202	53.691028
	1.550562	10.018782	47.803463	-4.935552	52.886693
	1.575190	14.000944	47.329453	-3.820189	57.510208
	2.018496	11.293074	45.275407	-4.935552	51.632929
	1.722958	10.178068	45.591414	-5.732239	50.037243
	2.190893	9.859495	46.223428	-3.820189	52.262734
	2.289405	9.700209	46.381432	-6.210252	49.871389
	2.289405	8.266630	44.959400	-6.369589	46.856441
	1.476677	7.948057	45.117404	-7.325614	45.739847
	1.649074	7.629484	43.063358	-9.715677	40.977166
	1.255024	8.266630	44.327386	-7.325614	45.268402
	1.476677	3.965895	41.325320	-10.034352	35.256863
	1.624446	5.718046	44.485390	-7.166277	43.037159
	2.363290	2.532316	44.327386	-10.353027	36.506676
	1.969240	3.965895	43.695372	-9.237664	38.423603
	2.264777	3.806608	43.853376	-7.006939	40.653044
	1.747587	4.284467	43.063358	-8.918989	38.428837
	2.560315	5.718046	44.485390	-8.281639	41.921797
	2.461802	1.417310	42.431344	-10.034352	33.814303
	1.722958	-0.971987	41.325320	-10.353027	30.000306
	1.476677	4.603041	47.013446	-7.484952	44.131535
	1.722958	0.461591	44.959400	-10.353027	35.067965
	1.846099	-0.016268	45.275407	-10.353027	34.906113
	1.772215	-0.016268	40.693306	-14.336464	26.340574
	1.821471	0.780165	43.063358	-9.875014	33.968509
	1.919983	-2.883425	40.535302	-12.902427	24.749451
	1.870727	0.143018	43.853376	-7.006939	36.989455
	2.117009	-1.927706	41.009313	-11.787064	27.294543
	2.092380	0.143018	44.011379	-10.353027	33.801371
	2.412546	-5.432009	41.483323	-13.858452	22.192863
	1.747587	3.806608	45.749418	-8.440977	41.115049
	1.969240	-3.042711	41.167316	-11.946402	26.178203
	1.944612	-0.334841	42.905355	-10.990377	31.580137
	1.870727	-3.679858	41.957334	-10.831039	27.446437
	1.624446	-0.812701	45.749418	-10.353027	34.583691
	1.895355	-3.679858	42.273341	-12.583752	26.009732
	1.673702	-1.290560	45.117404	-9.237664	34.589180
	2.043124	-0.653414	41.957334	-12.743089	28.560831
	2.117009	0.620878	46.065425	-8.440977	38.245326
	2.067752	-5.113436	41.009313	-13.380439	22.515438
	1.919983	-1.131274	44.801397	-10.671702	32.998422
	1.969240	-3.201998	44.485390	-11.627727	29.655665
	1.821471	-1.609133	45.275407	-10.990377	32.675898
	1.870727	-3.520571	44.643393	-8.281639	32.841183
	1.747587	0.939451	45.749418	-8.918989	37.769880
	1.969240	-0.812701	45.117404	-10.512364	33.792339
	1.747587	-3.679858	42.747351	-12.105739	26.961755
	1.969240	-3.520571	45.907421	-10.990377	31.396474
	2.215521	1.576597	50.647526	-7.484952	44.739172
	2.215521	-3.679858	45.591414	-11.309052	30.602505
	1.993868	-2.086993	46.223428	-9.237664	34.898772
	2.043124	0.620878	47.645460	-8.918989	39.347349
	2.067752	-1.290560	47.961467	-9.556339	37.114568
	2.117009	-3.839144	45.117404	-10.990377	30.287883
	2.240149	-1.449847	48.119470	-8.440977	38.228647
	1.969240	-3.042711	47.803463	-10.193689	34.567063
	1.969240	-0.812701	49.067491	-8.600314	39.654477
	2.092380	-3.520571	47.803463	-10.193689	34.089203
	1.969240	1.576597	49.225495	-8.281639	42.520453
	2.190893	-1.290560	49.541502	-7.803627	40.447315
	1.870727	-1.449847	48.119470	-9.397001	37.272622
	2.264777	-3.042711	47.645460	-8.600314	36.002434
	1.969240	-0.971987	50.331519	-8.440977	40.918556
	2.067752	-2.883425	48.909488	-9.397001	36.629061
	1.624446	1.417310	51.753551	-5.891577	47.279285
	1.969240	-1.609133	47.171449	-10.034352	35.527965
	1.846099	-0.971987	49.699505	-7.803627	40.923892
	1.796843	-4.157717	45.275407	-11.149714	29.967976
	1.772215	-1.290560	48.593481	-10.034352	37.268569
	1.993868	-2.564852	50.647526	-8.600314	39.482360
	1.722958	-2.724139	47.013446	-10.671702	33.617606
	2.240149	-4.317003	47.329453	-6.369589	36.642860
	1.772215	3.010175	49.383498	-6.688264	45.705410
	2.215521	-1.768420	48.119470	-8.759652	37.591399
	1.821471	-0.175555	48.277474	-7.006939	41.094980
	2.092380	-3.361285	46.855442	-10.193689	33.300469
	1.870727	1.735883	51.911554	-5.572902	48.074536
	1.870727	-1.449847	47.487456	-9.556339	36.481271
	1.722958	-1.131274	46.065425	-7.325614	37.608537
	1.895355	-1.927706	44.643393	-11.149714	31.565973
	1.501305	-1.927706	47.013446	-8.759652	36.326088
	1.846099	-2.405565	45.275407	-10.353027	32.516815
	1.698330	-0.016268	48.119470	-9.556339	38.546863
	2.043124	-1.449847	47.961467	-8.440977	38.070644
	1.673702	-2.883425	46.065425	-10.353027	32.828973
	1.919983	-0.812701	47.171449	-7.166277	39.192472
	1.698330	-0.016268	45.275407	-10.193689	35.065450
	1.993868	-2.883425	46.381432	-9.078327	34.419680
	1.846099	-1.131274	45.591414	-9.397001	35.063139
	2.092380	-2.724139	45.117404	-10.353027	32.040239
	1.846099	1.735883	50.805530	-6.369589	46.171824
	2.166265	-2.086993	46.381432	-10.193689	34.100750
	2.117009	0.461591	43.853376	-9.397001	34.917966
	2.190893	-0.653414	46.065425	-8.759652	36.652359
	1.846099	-0.175555	47.645460	-7.644289	39.825616
	2.117009	-0.971987	45.907421	-9.397001	35.538433
	1.846099	0.939451	47.487456	-9.078327	39.348581
	1.969240	-2.405565	48.593481	-9.875014	36.312901
	1.649074	0.461591	47.803463	-9.237664	39.027391
	1.870727	-1.449847	46.223428	-6.210252	38.563330
	1.624446	2.373029	45.749418	-8.440977	39.681471
	1.919983	-1.768420	46.697439	-9.237664	35.691355
	1.895355	0.302305	46.381432	-7.644289	39.039448
	1.895355	-0.334841	47.487456	-8.600314	38.552301
	1.575190	-0.016268	47.645460	-9.078327	38.550865
	1.821471	-2.086993	45.275407	-11.468389	31.720026
	1.796843	-1.290560	44.959400	-9.875014	33.793826
	2.264777	-1.290560	43.853376	-11.627727	30.935089
	1.501305	0.461591	48.119470	-8.122302	40.458760
	1.993868	0.143018	48.435477	-6.210252	42.368244
	1.575190	1.576597	48.435477	-9.237664	40.774410
	1.796843	-0.175555	50.963533	-8.759652	42.028327
	2.043124	-0.016268	47.961467	-10.193689	37.751510
	1.895355	1.895170	47.171449	-6.688264	42.378355
	1.870727	2.213743	46.855442	-9.556339	39.512846
	2.043124	0.461591	49.067491	-8.122302	41.406781
	1.993868	0.143018	46.065425	-9.556339	36.652104
	1.747587	2.532316	50.173516	-7.325614	45.380218
	2.117009	1.735883	49.699505	-8.600314	42.835075
	1.969240	0.939451	49.067491	-8.918989	41.087953
	1.969240	1.098737	44.327386	-9.875014	35.551110
	1.846099	-0.494128	46.381432	-10.353027	35.534278
	1.969240	-0.175555	47.645460	-9.397001	38.072904
	2.067752	0.939451	47.487456	-9.078327	39.348581
	2.338662	3.010175	49.383498	-9.078327	43.315347
	2.190893	0.620878	50.963533	-9.397001	42.187410
	2.486431	-0.175555	50.805530	-10.671702	39.958274
	2.658827	3.169462	47.803463	-9.078327	41.894599
	2.708084	3.328748	47.329453	-8.600314	42.057887
	2.412546	-0.653414	47.487456	-9.715677	37.118366
	2.905109	3.328748	49.699505	-5.572902	47.455352
	2.905109	2.054456	49.225495	-8.122302	43.157650
	3.274531	0.302305	47.961467	-10.034352	38.229420
	3.077506	5.080900	51.121537	-5.891577	50.310860
	3.520812	3.328748	48.435477	-8.759652	43.004574
	3.767093	6.355192	49.067491	-6.688264	48.734419
	4.136515	4.125181	50.331519	-7.006939	47.449761
	4.530565	3.647321	51.121537	-5.413564	49.355294
	4.653706	4.603041	50.015512	-7.006939	47.611614
	4.776847	5.558759	52.701572	-5.572902	52.687430
	5.047756	5.399473	51.595547	-6.369589	50.625431
	5.491063	8.744490	50.805530	-4.298202	55.251818
	5.712716	8.425916	50.647526	-3.979527	55.093916
	5.909741	8.266630	52.385565	-3.342177	57.310018
	6.599328	9.859495	52.543568	-1.589464	60.813599
	7.485941	11.611647	55.703638	-1.270789	66.044496
	7.879991	10.337354	54.755617	-2.226814	62.866158
	8.495695	15.912382	58.389698	2.075299	76.377378
	9.406936	15.912382	54.913621	1.278611	72.104613
	9.751729	13.682371	56.019645	0.641261	70.343277
	10.342805	15.753096	59.021712	2.871986	77.646793
	10.170408	17.823820	58.863708	4.943374	81.630902
	10.909252	18.938826	61.233761	4.306024	84.478609
	11.254046	21.965269	65.815862	6.855424	94.636555
	12.214543	18.460966	61.549768	3.987349	83.998082
	11.697352	25.788145	64.709838	7.970786	98.468769
	13.199668	28.336729	68.185914	13.228924	109.751567
	13.889256	26.425291	68.659925	11.476211	106.561427
	14.701984	27.699583	68.817928	15.778324	112.295835
	15.539341	30.566740	71.819995	14.981636	117.368371
	16.302813	31.522459	73.716037	15.937661	121.176157
	16.893888	34.071043	75.454076	17.849711	127.374830
	17.706617	35.026762	74.190048	16.256336	125.473146
	17.632732	35.982481	75.770083	19.283748	131.036312
	18.691742	35.026762	78.140135	19.761761	132.928658
	19.455214	39.805357	83.512254	25.816586	149.134197
	20.883646	38.212492	80.668191	22.311161	141.191844
	21.425465	43.628233	85.250293	26.613274	155.491799
	22.730756	41.716795	85.250293	26.772611	153.739699
	23.321831	47.610396	88.094356	28.206648	163.911400
	24.479354	45.539671	86.514321	29.640686	161.694678
	24.898032	47.132536	90.780415	31.234061	169.147012
	25.489107	50.318266	92.834461	36.970211	180.122938
	25.932414	52.707563	95.994531	36.651536	185.353630
	26.252579	49.681120	95.046509	34.261474	178.989103
	26.695886	54.778288	97.890573	38.882261	191.551121
	27.878037	55.734007	98.206580	39.678949	193.619535
	27.878037	58.601164	102.630678	44.299736	205.531577
	28.616881	55.415434	101.524653	41.909674	198.849761
	29.404981	59.556883	105.000730	46.849136	211.406749
	29.823659	58.601164	103.578699	45.096424	207.276286
	29.651262	64.176192	113.216912	51.469924	228.863027
	29.996056	63.379759	108.476807	48.601849	220.458415
	30.143825	68.636213	111.320870	52.744624	232.701707
	30.488619	66.406202	111.794881	55.931374	234.132457
	30.193081	67.839781	114.006930	56.250049	238.096759
	30.611760	67.839781	114.164933	60.233486	242.238200
	30.193081	71.184798	116.376982	59.436799	246.998578
	30.365478	71.662657	118.747034	61.508186	251.917878
	30.390107	74.848387	119.221045	63.260898	257.330331
	30.661016	77.078398	120.327070	64.535599	261.941066
	30.193081	77.078398	121.907105	69.156386	268.141889
	30.414735	77.715544	124.277157	68.200361	270.193062
	29.872916	80.582701	127.121220	71.705786	279.409707
	29.823659	80.741988	126.173199	71.227774	278.142960
	28.961675	83.768431	126.489206	73.299161	283.556798
	29.232584	84.087004	129.017262	75.211211	288.315477
	28.395227	87.909880	130.123287	74.573861	292.607028
	28.272087	86.157729	129.491273	77.282599	292.931600
	27.336218	87.909880	132.019329	76.963924	296.893132
	26.720514	87.750594	131.387315	80.150674	299.288582
	25.341338	89.821318	133.125353	78.716636	301.663307
	25.070429	88.865599	134.389381	78.875974	302.130954
	24.109932	93.007048	133.441360	78.079286	304.527694
	23.124806	90.139891	132.177332	78.875974	301.193197
	22.139681	87.750594	131.229311	76.963924	295.943828
	21.400837	88.069167	131.861325	76.645248	296.575740
	20.932902	90.458464	133.915371	79.513323	303.887158
	20.489596	85.361296	129.333269	73.936511	288.631076
	19.061164	83.927717	131.071308	72.821149	287.820174
	18.470089	86.476302	128.859259	72.024461	287.360021
	17.411079	84.087004	125.699189	69.156386	278.942579
	16.425954	80.104842	123.803146	69.793736	273.701724
	15.662481	78.034117	121.749101	65.013611	264.796829
	15.071406	76.281966	119.695056	67.403673	263.380695
	13.913884	75.644819	119.221045	63.101561	257.967425
	13.741487	72.618376	119.221045	61.826861	253.666282
	12.731733	73.414808	114.954951	59.118124	247.487883
	12.707105	67.680495	111.636877	54.975349	234.292720
	12.165286	64.335478	108.634811	53.381974	226.352262
	11.475699	62.742613	108.792814	50.991911	222.527338
	10.662970	63.379759	109.108821	52.585286	225.073866
	10.490573	58.282591	104.368716	47.645824	210.297131
	9.677845	56.849013	101.366650	44.777749	202.993411
	9.554704	53.026136	97.732569	42.706361	193.465067
	8.397182	54.778288	97.890573	40.475636	193.144497
	8.692720	47.928968	93.624478	37.926236	179.479683
	7.904619	48.566114	94.256492	36.173524	178.996130
	7.707594	44.424665	92.676457	34.102136	171.203259
	7.362801	43.628233	89.832394	32.349424	165.810050
	7.288916	40.123930	88.410363	29.959361	158.493653
	6.648585	44.106093	87.304338	30.596711	162.007142
	6.574700	36.778913	83.670258	26.453936	146.903107
	6.500816	35.345335	81.774216	25.816586	142.936137
	6.697841	32.318891	80.194181	22.470499	134.983570
	5.958997	32.318891	79.562167	23.745199	135.626257
	6.303791	28.973875	76.718104	19.602424	125.294402
	5.983625	28.336729	76.876107	18.965074	124.177910
	6.131394	27.858870	72.926020	16.415674	117.200563
	5.638831	25.788145	71.503988	14.184949	111.477082
	5.835856	23.876707	70.871974	16.256336	111.005017
	5.811228	25.788145	72.452009	15.300311	113.540465
	5.934369	20.372404	66.921886	14.662961	101.957252
	5.392550	21.646696	68.027911	11.954224	101.628831
	5.589575	18.460966	67.237894	10.679524	96.378383
	5.564947	21.965269	66.447876	10.838861	99.252006
	5.688088	16.549528	63.919820	8.926811	89.396159
	5.515691	17.664534	63.919820	9.882836	91.467190
	5.835856	14.478804	62.497789	6.377411	83.354003
	5.663459	17.186674	64.867841	8.448799	90.503314
	5.909741	15.115949	62.971799	7.492774	85.580522
	5.638831	15.115949	61.865775	6.855424	83.837148
	6.353047	15.275236	60.759750	7.174099	83.209085
	5.761972	17.186674	62.813796	8.130124	88.130593
	6.229906	12.726652	61.549768	6.855424	81.131843
	5.934369	14.638090	62.655792	7.014761	84.308643
	6.402303	14.797377	66.131869	6.058736	86.987982
	6.303791	16.868101	62.655792	7.014761	86.538654
	6.697841	14.000944	62.971799	7.174099	84.146842
	6.500816	19.735258	64.867841	11.476211	96.079310
	6.525444	14.160231	64.393830	8.289461	86.843522
	6.402303	15.115949	63.761817	8.767474	87.645240
	6.919494	14.956663	65.183848	7.970786	88.111297
	6.697841	13.523085	63.919820	7.333436	84.776341
	6.845610	15.434522	66.605880	9.404824	91.445226
	6.550072	15.115949	65.815862	8.289461	89.221273
	6.673213	16.549528	65.815862	9.882836	92.248226
	6.205278	17.664534	68.659925	11.157536	97.481995
	6.106766	16.549528	66.605880	10.838861	93.994269
	5.958997	17.664534	68.501922	9.086149	95.252604
	6.131394	16.708815	68.659925	10.360849	95.729588
	5.860485	18.620252	69.765950	11.316874	99.703075
	5.909741	17.027387	68.027911	8.926811	93.982110
	5.934369	18.779539	67.553900	11.635549	97.968988
	6.057510	14.638090	66.289873	8.608136	89.536099
	5.663459	15.275236	65.025845	8.608136	88.909217
	5.688088	16.708815	67.237894	7.970786	91.917494
	5.540319	16.071669	68.027911	7.811449	91.911028
	5.441806	17.505247	67.711904	9.564161	94.781312
	5.638831	16.708815	65.657859	8.289461	90.656134
	5.515691	18.620252	65.183848	9.564161	93.368262
	5.491063	14.478804	63.445810	5.580724	83.505337
	5.343294	14.956663	64.393830	7.492774	86.843267
	5.712716	15.275236	64.551834	6.536749	86.363819
	5.515691	16.071669	67.869908	6.377411	90.318987
	5.786600	17.027387	65.657859	7.492774	90.178020
	5.737344	15.434522	64.077824	5.580724	85.093070
	5.737344	18.460966	63.287806	9.245486	90.994258
	5.909741	14.319517	62.813796	5.102711	82.236024
	5.638831	14.638090	61.865775	5.421386	81.925251
	5.934369	15.434522	63.761817	5.421386	84.617725
	6.229906	15.753096	65.025845	4.943374	85.722314
	6.229906	14.319517	62.971799	4.784036	82.075352
	6.353047	15.912382	61.707771	3.987349	81.607502
	6.599328	17.345961	63.129802	7.174099	87.649862
	6.747097	16.708815	64.867841	7.492774	89.069429
	6.796354	14.319517	60.917754	4.624699	79.861969
	6.919494	16.708815	63.919820	5.421386	86.050021
	7.018007	16.549528	65.183848	4.465361	86.198737
	7.091891	14.797377	62.655792	4.624699	82.077867
	7.264288	19.098112	64.867841	6.058736	90.024689
	7.362801	17.027387	64.077824	8.767474	89.872685
	7.609082	14.478804	63.129802	5.580724	83.189329
	7.806107	18.301680	64.867841	8.289461	91.458982
	8.052388	16.071669	64.077824	6.058736	86.208228
	8.618835	17.505247	66.447876	7.492774	91.445897
	8.594207	14.638090	63.603813	5.899399	84.141302
	8.717348	18.620252	62.655792	5.899399	87.175443
	8.914373	18.460966	63.919820	8.767474	91.148259
	8.914373	17.505247	65.973866	8.448799	91.927911
	9.062142	17.505247	66.131869	8.448799	92.085915
	9.136026	19.894544	67.395897	10.360849	97.651290
	9.751729	19.735258	70.555967	10.042174	100.333399
	9.456192	20.213117	68.185914	10.360849	98.759880
	9.924126	20.850264	68.185914	10.042174	99.078351
	10.071895	23.080275	66.763883	10.998199	100.842356
	10.441317	19.575972	69.133936	11.635549	100.345456
	10.662970	19.575972	66.921886	10.520186	97.018044
	10.810739	22.283842	70.555967	13.547599	106.387408
	10.786111	23.558134	72.136002	13.547599	109.241735
	11.278674	22.761702	71.503988	14.981636	109.247326
	11.278674	26.584578	71.187981	14.662961	112.435519
	11.549583	23.876707	71.503988	16.575011	111.955706
	11.549583	26.106718	74.664058	17.690373	118.461150
	11.968261	23.717420	70.871974	15.459649	110.049043
	11.968261	27.540297	75.138069	17.212361	119.890726
	12.017518	26.903150	77.666125	17.531036	122.100311
	12.091402	26.743864	74.664058	17.849711	119.257633
	12.239171	29.451735	75.454076	18.009048	122.914859
	12.608593	32.318891	80.352184	26.931949	139.603024
	12.633221	28.655302	77.824128	21.195799	127.675229
	12.288427	31.363172	78.298139	22.311161	131.972472
	12.780990	27.221723	75.454076	18.487061	121.162860
	12.707105	32.478178	81.300205	22.470499	136.248882
	13.125784	29.292448	79.088156	22.151823	130.532428
	13.002643	35.026762	79.246160	22.789174	137.062095
	12.904130	31.363172	77.982132	23.107848	132.453152
	12.830246	33.274610	81.932219	25.338573	140.545403
	12.780990	31.044600	80.984198	22.948511	134.977309
	12.805618	34.071043	82.090223	26.294599	142.455864
	12.830246	32.956038	83.986265	23.745199	140.687500
	12.633221	35.345335	83.828261	26.931949	146.105545
	12.682477	35.345335	80.668191	22.948511	138.962037
	12.288427	36.460340	81.932219	24.860561	143.253120
	12.633221	34.071043	83.196247	26.294599	143.561889
	12.214543	37.256773	84.776282	27.887974	149.921029
	13.101155	34.230329	82.406230	28.206648	144.843208
	12.214543	36.778913	85.408296	27.250623	149.437833
	12.140658	34.071043	83.038244	25.975924	143.085210
	12.337683	37.256773	81.932219	24.541886	143.730878
	12.337683	35.345335	83.038244	27.091286	145.474864
	12.140658	36.460340	85.092289	27.728636	149.281265
	12.042146	36.778913	82.722237	25.497911	144.999061
	12.140658	34.708189	83.038244	25.816586	143.563018
	12.239171	33.752470	85.882306	24.382548	144.017325
	11.869749	38.053205	85.882306	28.206648	152.142160
	11.845121	35.026762	81.932219	23.585861	140.544842
	12.042146	36.619627	84.302272	29.162674	150.084572
	11.721980	29.929594	79.562167	21.833149	131.324909
	11.524955	33.911756	81.616212	25.019899	140.547867
	11.869749	29.451735	78.930153	21.514474	129.896361
	11.303302	35.345335	85.408296	26.294599	147.048230
	11.352558	33.593183	81.458208	23.904536	138.955928
	11.303302	37.256773	83.196247	25.657249	146.110269
	11.377186	30.407453	79.562167	24.382548	134.352169
	11.327930	33.433897	82.248226	25.179236	140.861359
	11.451071	33.115324	81.774216	24.541886	139.431426
	10.909252	35.982481	84.934286	28.365986	149.282753
	11.254046	31.363172	83.512254	23.585861	138.461287
	11.007764	33.752470	82.090223	24.860561	140.703254
	10.810739	34.867475	81.458208	23.426524	139.752207
	10.638342	32.637465	79.878174	22.948511	135.464149
	10.589086	29.611021	79.878174	22.629836	132.119031
	10.589086	34.230329	83.038244	25.019899	142.288472
	10.736855	29.611021	79.562167	25.019899	134.193086
	10.515202	30.885313	81.142202	22.789174	134.816688
	10.465945	28.655302	79.246160	22.311161	130.212623
	10.244292	33.752470	80.668191	23.585861	138.006522
	10.564458	28.655302	78.140135	21.514474	128.309911
	10.170408	31.522459	81.142202	24.382548	137.047209
	10.318176	30.088881	80.352184	22.151823	132.592888
	10.170408	31.681745	80.826194	25.179236	137.687176
	9.924126	28.655302	82.248226	21.673811	132.577339
	10.170408	33.115324	80.194181	22.629836	135.939341
	9.825614	31.203886	81.142202	22.789174	135.135261
	9.480820	25.469572	74.822062	18.805736	119.097369
	10.047267	30.407453	81.458208	24.382548	136.248210
	9.554704	29.929594	77.982132	22.311161	130.222887
	9.924126	29.133161	79.720170	24.063874	132.917205
	9.382307	29.292448	81.300205	22.629836	133.222489
	9.333051	31.044600	80.194181	23.426524	134.665303
	9.185282	30.885313	78.614146	22.151823	131.651282
	9.136026	28.018156	79.246160	22.948511	130.212827
	9.431564	28.018156	78.140135	21.195799	127.354089
	9.382307	29.929594	79.878174	22.311161	132.118929
	9.209910	28.336729	78.456142	21.833149	128.626020
	9.037514	29.929594	82.722237	22.470499	135.122329
	9.209910	27.540297	76.244093	18.965074	122.749463
	8.815860	29.292448	78.456142	20.717786	128.466376
	9.062142	24.832426	74.348051	17.212361	116.392838
	9.012885	26.584578	77.034110	19.602424	123.221111
	8.889745	24.991712	76.244093	17.531036	118.766841
	8.766604	27.381010	77.192114	22.948511	127.521635
	9.111398	23.876707	75.454076	17.053024	116.383806
	8.815860	26.743864	76.244093	19.124411	122.112368
	8.889745	26.584578	74.506055	17.849711	118.940343
	8.520323	25.469572	75.296072	17.690373	118.456018
	8.889745	21.646696	72.926020	15.300311	109.873027
	8.668092	28.177443	79.088156	19.443086	126.708685
	8.766604	24.673140	76.244093	19.124411	120.041643
	8.668092	24.832426	77.666125	17.690373	120.188924
	8.741976	26.425291	74.664058	17.212361	118.301710
	8.397182	25.469572	74.506055	16.893686	116.869313
	8.963629	21.487409	72.294006	14.503624	108.285039
	8.249413	26.106718	76.718104	18.646399	121.471220
	8.421810	22.761702	71.819995	15.459649	110.041345
	8.421810	25.788145	76.402096	21.514474	123.704715
	8.101645	23.558134	76.718104	17.690373	117.966611
	8.471067	26.584578	74.190048	16.415674	117.190299
	8.372554	24.354567	74.032044	17.053024	115.439634
	8.544951	21.965269	72.294006	15.459649	109.718923
	8.323298	24.673140	75.454076	18.009048	118.136264
	8.520323	23.398847	73.874041	15.300311	112.573199
	8.347926	22.761702	73.874041	17.690373	114.326116
	8.323298	22.761702	76.876107	15.778324	115.416132
	8.224785	25.150999	73.400030	15.937661	114.488690
	8.323298	24.195280	73.874041	16.415674	114.484994
	8.298670	21.328123	71.503988	14.184949	107.017060
	8.520323	22.443129	73.558034	15.459649	111.460811
	8.446438	24.832426	75.612079	16.734348	117.178853
	8.520323	21.009550	71.819995	14.981636	107.811181
	8.717348	20.372404	72.768016	14.503624	107.644044
	8.840489	23.080275	72.294006	14.344286	109.718566
	8.963629	23.876707	73.084023	15.778324	112.739053
	8.618835	20.850264	73.242027	16.256336	110.348626
	8.766604	22.124555	74.032044	16.415674	112.572273
	9.111398	21.965269	74.190048	14.344286	110.499602
	9.160654	22.283842	73.400030	16.256336	111.940208
	9.062142	23.080275	73.874041	16.575011	113.529326
	8.988257	26.106718	74.980065	16.734348	117.821131
	8.791232	23.876707	75.138069	17.849711	116.864486
	8.963629	22.443129	73.084023	15.937661	111.464813
	9.037514	21.328123	72.926020	14.981636	109.235779
	8.889745	23.398847	74.348051	18.009048	115.755947
	8.741976	24.195280	75.928086	21.036461	121.159827
	9.062142	24.513853	77.508121	18.487061	120.509035
	9.259167	26.743864	75.296072	17.531036	119.570972
	9.185282	21.965269	72.926020	15.937661	110.828950
	9.062142	23.398847	75.138069	17.053024	115.589940
	9.185282	24.195280	75.454076	17.690373	117.339729
	9.234539	24.673140	76.402096	17.212361	118.287597
	9.209910	23.876707	75.928086	19.124411	118.929204
	9.333051	24.673140	78.772149	17.053024	120.498312
	9.012885	26.106718	76.244093	17.371699	119.722510
	9.406936	21.328123	73.400030	16.256336	110.984489
	9.209910	24.035993	74.980065	17.690373	116.706432
	9.333051	24.354567	76.402096	17.849711	118.606374
	9.283795	26.743864	78.140135	18.487061	123.371060
	9.456192	23.080275	74.980065	16.575011	114.635351
	9.677845	24.513853	77.034110	18.646399	120.194362
	9.702473	24.991712	74.348051	15.778324	115.118087
	9.554704	25.150999	76.402096	19.921099	121.474194
	9.579332	22.602415	73.874041	16.734348	113.210804
	9.456192	25.947432	77.666125	18.965074	122.578630
	9.948754	23.558134	76.402096	16.415674	116.375904
	9.456192	25.310286	76.876107	17.849711	120.036104
	9.554704	22.761702	73.716037	16.734348	113.212087
	9.899498	26.106718	74.348051	16.415674	116.870442
	10.022639	24.673140	76.718104	19.602424	120.993667
	9.677845	23.717420	74.980065	17.690373	116.387859
	10.047267	23.558134	75.612079	17.690373	116.860586
	9.776358	25.947432	77.508121	17.531036	120.986589
	9.825614	22.920988	75.454076	17.053024	115.428087
	9.776358	26.743864	78.298139	19.124411	124.166414
	9.874870	25.469572	75.612079	17.053024	118.134674
	9.776358	25.628858	77.666125	19.761761	123.056744
	9.948754	23.558134	75.770083	18.327724	117.655940
	9.751729	26.106718	79.720170	18.965074	124.791962
	9.899498	23.717420	77.508121	17.371699	118.597240
	9.702473	26.903150	78.298139	21.195799	126.397087
	10.022639	28.018156	80.194181	19.602424	127.814760
	9.850242	27.062437	79.088156	20.080436	126.231029
	9.948754	20.850264	74.348051	16.575011	111.773325
	9.554704	25.947432	76.402096	18.805736	121.155264
	10.022639	25.150999	77.982132	19.443086	122.576217
	9.653217	26.903150	79.088156	19.443086	125.434393
	9.948754	23.080275	77.034110	19.283748	119.398134
	9.603961	28.814589	79.088156	20.399111	128.301856
	9.751729	26.106718	77.192114	18.965074	122.263906
	9.505448	25.628858	78.140135	22.629836	126.398829
	9.850242	24.832426	77.192114	19.921099	121.945639
	9.677845	26.425291	78.930153	20.877123	126.232567
	9.899498	24.991712	79.246160	18.965074	123.202946
	9.579332	27.858870	80.036177	21.195799	129.090845
	10.096523	24.673140	76.560100	18.965074	120.198313
	9.874870	28.018156	77.982132	18.805736	124.806024
	10.096523	24.673140	78.930153	22.311161	125.914453
	9.505448	27.062437	79.088156	21.992486	128.143079
	9.850242	26.584578	79.720170	21.195799	127.500546
	9.579332	27.062437	80.352184	19.921099	127.335720
	9.800986	21.646696	75.928086	16.256336	113.831118
	9.702473	28.177443	79.878174	20.558449	128.614065
	9.874870	27.540297	79.088156	21.355136	127.983589
	9.530076	25.788145	79.088156	22.311161	127.187462
	10.022639	26.584578	79.246160	21.673811	127.504548
	9.874870	26.266004	78.614146	20.239773	125.119923
	9.653217	24.832426	79.720170	19.443086	123.995682
	9.333051	26.425291	80.194181	21.514474	128.133945
	9.653217	28.973875	80.984198	21.514474	131.472547
	9.456192	26.266004	79.878174	20.558449	126.702627
	9.653217	24.035993	78.456142	21.514474	124.006609
	9.283795	26.425291	77.824128	20.717786	124.967205
	9.308423	26.106718	79.562167	21.195799	126.864683
	9.973383	26.743864	79.878174	19.761761	126.383799
	9.579332	25.628858	80.984198	20.399111	127.012168
	9.554704	29.133161	80.668191	21.355136	131.156489
	9.357679	26.106718	78.140135	18.965074	123.211927
	9.111398	25.310286	79.088156	23.426524	127.824965
	9.406936	23.558134	76.876107	19.761761	120.196002
	9.308423	24.991712	77.982132	19.602424	122.576268
	9.603961	27.540297	82.090223	22.151823	131.782343
	9.185282	26.743864	80.194181	20.877123	127.815168
	9.505448	27.858870	78.298139	21.195799	127.352807
	9.259167	25.947432	77.666125	18.805736	122.419292
	10.121151	24.832426	79.720170	22.789174	127.341770
	9.677845	25.628858	78.930153	20.558449	125.117459
	9.702473	23.558134	77.824128	19.124411	120.506673
	9.480820	26.106718	82.406230	21.195799	129.708746
	9.406936	24.354567	79.562167	20.080436	123.997169
	9.259167	30.726026	81.458208	23.267186	135.451421
	9.382307	24.673140	77.192114	18.487061	120.352315
	9.086770	24.354567	78.456142	23.107848	125.918557
	9.259167	24.991712	78.614146	20.717786	124.323644
	9.209910	24.832426	78.298139	19.921099	123.051663
	9.382307	23.876707	79.562167	18.646399	122.085272
	9.702473	25.628858	79.088156	20.239773	124.956788
	9.308423	25.947432	79.246160	20.399111	125.592702
	8.988257	24.991712	78.298139	19.761761	123.051612
	9.357679	23.398847	78.456142	21.514474	123.369463
	9.062142	26.425291	77.982132	21.195799	125.603221
	9.209910	25.469572	79.562167	21.514474	126.546212
	9.062142	24.513853	77.034110	18.168386	119.716349
	9.062142	26.106718	79.088156	19.443086	124.637960
	9.086770	28.177443	80.352184	21.195799	129.725425
	9.234539	23.080275	77.982132	19.283748	120.346155
	9.160654	21.646696	75.770083	20.080436	117.497214
	9.603961	23.558134	75.928086	18.965074	118.451294
	8.963629	25.469572	79.246160	20.717786	125.433518
	9.308423	23.398847	78.930153	19.124411	121.453411
	9.086770	25.788145	79.246160	20.080436	125.114741
	9.234539	25.310286	75.928086	18.965074	120.203445
	9.062142	24.035993	76.876107	18.805736	119.717837
	9.333051	22.920988	77.982132	20.877123	121.780243
	9.086770	23.876707	77.508121	19.283748	120.668577
	9.480820	23.398847	77.192114	18.327724	118.918685
	9.283795	24.832426	81.932219	21.195799	127.960443
	9.185282	24.832426	80.194181	21.514474	126.541080
	8.914373	24.035993	75.296072	16.893686	116.225752
	9.259167	21.009550	74.822062	15.778324	111.609935
	9.012885	26.743864	80.984198	24.701224	132.429286
	9.234539	22.920988	75.928086	18.646399	117.495473
	8.840489	26.425291	80.036177	21.673811	128.135279
	9.111398	23.239561	78.772149	19.124411	121.136121
	9.111398	26.266004	77.824128	17.849711	121.939843
	9.357679	21.328123	74.980065	16.575011	112.883199
	9.086770	23.717420	78.140135	19.124411	120.981966
	9.333051	21.328123	75.612079	18.965074	115.905276
	9.185282	24.195280	75.296072	19.443086	118.934438
	9.283795	23.558134	77.824128	19.443086	120.825348
	8.914373	22.443129	77.034110	18.327724	117.804963
	9.209910	23.558134	75.928086	15.937661	115.423881
	9.209910	24.991712	77.982132	18.965074	121.938918
	9.480820	21.487409	76.876107	17.849711	116.213228
	9.160654	24.354567	77.824128	22.789174	124.967868
	9.480820	21.646696	74.348051	17.690373	113.685120
	8.963629	24.035993	77.824128	18.646399	120.506520
	9.406936	22.443129	77.982132	18.965074	119.390334
	9.406936	24.195280	76.402096	17.690373	118.287750
	9.234539	23.876707	76.086090	19.443086	119.405883
	8.988257	23.717420	78.140135	19.283748	121.141304
	9.160654	19.735258	74.664058	17.212361	111.611677
	8.840489	24.035993	77.350118	19.124411	120.510522
	9.185282	24.035993	78.614146	19.443086	122.093225
	9.111398	23.876707	81.142202	21.036461	126.055370
	9.012885	22.443129	77.192114	18.646399	118.281641
	8.914373	28.336729	78.930153	21.195799	128.462680
	8.988257	21.009550	74.980065	16.893686	112.883301
	9.012885	24.673140	79.562167	19.761761	123.997067
	9.086770	18.938826	71.503988	14.981636	105.424450
	8.963629	24.991712	79.246160	20.239773	124.477646
	9.333051	21.168837	76.718104	18.487061	116.374001
	8.889745	27.221723	78.930153	20.239773	126.391649
	9.111398	21.646696	74.664058	17.531036	113.841790
	8.963629	22.761702	77.982132	19.602424	120.346257
	8.963629	22.761702	77.508121	20.399111	120.668934
	8.741976	23.876707	76.402096	19.124411	119.403214
	9.185282	21.009550	75.928086	17.690373	114.628010
	9.086770	23.239561	80.352184	20.239773	123.831519
	9.209910	23.558134	75.770083	17.212361	116.540577
	9.234539	23.398847	78.140135	19.124411	120.663394
	9.111398	22.283842	77.666125	18.327724	118.277690
	8.963629	23.398847	76.876107	21.514474	121.789428
	9.160654	22.602415	76.244093	18.646399	117.492907
	8.840489	24.035993	77.982132	19.761761	121.779886
	9.160654	21.168837	77.824128	18.327724	117.320688
	8.815860	26.266004	78.140135	19.283748	123.689888
	8.889745	23.398847	77.034110	19.602424	120.035381
	8.889745	23.080275	77.824128	20.239773	121.144176
	8.815860	22.920988	77.508121	19.921099	120.350208
	8.594207	23.876707	76.876107	20.239773	120.992587
	9.012885	23.398847	77.666125	18.965074	120.030046
	8.939001	22.443129	81.458208	21.514474	125.415810
	8.988257	24.991712	78.298139	19.921099	123.210949
	8.889745	24.354567	77.666125	19.602424	121.623115
	8.815860	21.328123	75.454076	18.327724	115.109922
	8.889745	20.372404	75.928086	16.256336	112.556826
	8.963629	23.398847	76.560100	19.602424	119.561371
	9.111398	23.876707	78.930153	20.239773	123.046633
	8.889745	22.602415	79.088156	22.470499	124.161070
	8.865117	26.584578	78.930153	20.558449	126.073179
	8.889745	24.195280	78.140135	21.673811	124.009226
	8.815860	22.124555	77.350118	19.602424	119.077097
	8.865117	23.558134	77.982132	20.877123	122.417389
	8.939001	23.717420	76.560100	20.558449	120.835969
	8.692720	24.035993	78.772149	20.877123	123.685266
	8.939001	23.398847	79.246160	21.355136	124.000143
	8.865117	25.310286	78.772149	19.921099	124.003533
	9.111398	21.646696	78.140135	19.761761	119.548592
	8.840489	24.832426	79.404163	20.399111	124.635700
	8.791232	22.443129	77.666125	19.921099	120.030352
	9.062142	23.558134	77.192114	20.558449	121.308696
	9.111398	24.991712	80.194181	21.992486	127.178379
	8.939001	26.584578	80.826194	23.426524	130.837296
	9.209910	25.310286	79.562167	21.036461	125.908913
	8.791232	22.920988	77.824128	21.036461	121.781577
	8.865117	23.080275	78.298139	20.239773	121.618187
	8.939001	22.124555	77.034110	18.805736	117.964402
	9.062142	23.080275	77.666125	20.399111	121.145510
	8.766604	23.080275	78.298139	19.602424	120.980837
	8.963629	23.558134	82.880240	23.107848	129.546222
	8.939001	26.106718	78.614146	20.717786	125.438650
	9.209910	23.558134	78.140135	21.036461	122.734730
	8.741976	23.717420	77.666125	21.355136	122.738681
	8.914373	23.717420	79.720170	20.717786	124.155377
	8.668092	24.035993	77.824128	20.877123	122.737245
	8.840489	25.469572	80.668191	21.514474	127.652237
	8.840489	21.646696	78.456142	22.151823	122.254661
	9.185282	28.336729	81.616212	24.063874	134.016815
	9.062142	22.443129	77.192114	20.239773	119.875016
	8.766604	21.646696	77.508121	20.080436	119.235253
	8.914373	22.443129	77.034110	19.283748	118.760987
	8.865117	23.398847	76.876107	20.877123	121.152078
	8.988257	23.398847	78.772149	19.921099	122.092095
	8.914373	24.832426	80.668191	22.470499	127.971116
	8.865117	24.832426	77.666125	19.761761	122.260312
	8.963629	21.328123	77.982132	20.239773	119.550028
	8.963629	23.239561	78.298139	19.761761	121.299461
	9.111398	23.080275	78.456142	19.602424	121.138840
	8.963629	24.832426	77.982132	22.151823	124.966381
	9.037514	24.195280	79.878174	21.833149	125.906602
	9.012885	26.266004	80.352184	23.107848	129.726037
	8.963629	22.761702	78.614146	20.558449	121.934296
	8.914373	21.646696	78.456142	20.239773	120.342611
	8.766604	23.558134	78.456142	20.717786	122.732062
	8.939001	23.398847	78.140135	20.399111	121.938094
	8.889745	22.283842	76.244093	19.443086	117.971021
	8.889745	21.646696	77.508121	18.646399	117.801216
	8.889745	24.832426	81.458208	22.151823	128.442458
	8.914373	23.558134	77.508121	19.602424	120.668679
	8.865117	22.283842	78.140135	20.717786	121.141763
	9.111398	21.646696	76.086090	19.921099	117.653884
	8.865117	25.150999	80.036177	22.470499	127.657674
	8.963629	22.761702	78.772149	20.399111	121.932962
	8.988257	23.398847	78.772149	19.921099	122.092095
	9.136026	20.531690	76.560100	17.212361	114.304152
	9.259167	27.062437	78.772149	21.673811	127.508397
	9.136026	19.735258	74.980065	16.734348	111.449671
	9.160654	20.053831	75.138069	21.833149	117.025048
	9.062142	21.168837	76.876107	18.965074	117.010017
	8.963629	24.195280	78.930153	22.151823	125.277256
	8.914373	23.876707	77.034110	19.921099	120.831916
	8.963629	20.690977	76.086090	17.849711	114.626778
	8.791232	21.328123	77.192114	22.948511	121.468748
	8.520323	24.195280	77.824128	21.673811	123.693219
	9.012885	21.805983	77.666125	19.921099	119.393206
	8.791232	23.558134	78.772149	19.921099	122.251382
	8.963629	23.080275	77.508121	20.080436	120.668832
	8.668092	22.443129	79.878174	21.195799	123.517101
	8.766604	21.328123	77.666125	20.239773	119.234021
	8.815860	22.761702	76.876107	20.877123	120.514932
	9.012885	21.328123	76.244093	18.487061	116.059277
	9.333051	23.080275	79.562167	21.673811	124.316252
	8.815860	24.991712	77.982132	20.399111	123.372955
	8.717348	22.761702	77.982132	23.745199	124.489032
	8.889745	20.690977	82.248226	19.602424	122.541627
	8.741976	23.558134	79.088156	21.195799	123.842089
	8.963629	23.558134	80.510188	21.833149	125.901470
	8.594207	23.717420	78.930153	21.514474	124.162047
	9.037514	24.195280	77.982132	20.877123	123.054535
	8.815860	25.469572	78.456142	20.877123	124.802837
	8.963629	21.965269	78.930153	22.948511	123.843932
	8.397182	23.080275	80.352184	21.673811	125.106270
	8.939001	24.195280	80.352184	22.151823	126.699287
	8.791232	24.195280	82.248226	20.399111	126.842617
	9.086770	23.398847	80.194181	21.514474	125.107502
	8.840489	23.876707	77.508121	20.080436	121.465264
	8.766604	25.150999	78.772149	21.355136	125.278284
	8.668092	21.646696	78.298139	21.514474	121.459308
	8.618835	23.558134	77.666125	21.036461	122.260720
	8.791232	23.558134	78.930153	21.355136	123.843423
	8.889745	23.080275	78.456142	18.805736	120.342152
	9.111398	25.788145	78.772149	22.151823	126.712118
	8.840489	26.106718	83.038244	22.948511	132.093473
	9.357679	20.053831	77.350118	18.965074	116.369022
	8.741976	22.602415	77.192114	18.646399	118.440928
	9.012885	21.168837	74.980065	19.283748	115.432650
	8.692720	22.602415	77.666125	19.761761	120.030301
	8.939001	21.487409	75.296072	18.805736	115.589218
	9.209910	24.832426	77.666125	20.080436	122.578987
	9.185282	19.575972	77.508121	17.212361	114.296453
	9.012885	20.531690	76.560100	18.168386	115.260176
	9.160654	20.531690	77.982132	17.531036	116.044858
	8.963629	23.876707	78.298139	21.833149	124.007994
	9.012885	20.690977	76.244093	18.646399	115.581468
	9.062142	26.106718	76.402096	20.239773	122.748588
	9.234539	22.920988	78.298139	19.602424	120.821550
	8.791232	22.602415	77.824128	18.646399	119.072942
	8.988257	22.283842	77.666125	20.717786	120.667753
	9.037514	23.080275	78.298139	18.965074	120.343487
	8.988257	22.920988	78.140135	23.426524	124.487647
	8.963629	23.398847	77.982132	20.717786	122.098765
	9.037514	24.035993	76.402096	19.602424	120.040514
	9.062142	22.920988	77.666125	19.602424	120.189536
	9.012885	22.602415	79.562167	20.558449	122.723030
	9.037514	22.920988	78.140135	19.921099	120.982222
	8.939001	22.283842	80.510188	18.965074	121.759103
	8.889745	23.239561	78.298139	21.355136	122.892836
	9.062142	25.788145	78.930153	20.558449	125.276746
	9.259167	23.717420	77.666125	20.399111	121.782656
	9.012885	22.761702	78.140135	19.443086	120.344922
	9.283795	21.965269	76.718104	22.470499	121.153871
	8.939001	22.602415	77.350118	19.283748	119.236281
	9.111398	20.372404	76.086090	18.327724	114.786217
	9.234539	22.602415	76.244093	18.009048	116.855557
	9.062142	23.080275	79.562167	19.283748	121.926190
	9.111398	22.602415	78.614146	21.036461	122.253022
	9.037514	20.053831	75.138069	18.168386	113.360286
	9.062142	24.354567	77.982132	22.470499	124.807197
	9.111398	20.372404	75.296072	17.849711	113.518187
	9.111398	24.354567	80.510188	21.833149	126.697903
	9.136026	24.035993	77.034110	18.646399	119.716503
	8.963629	22.443129	79.878174	23.267186	125.588488
	9.160654	21.168837	78.298139	20.558449	120.025424
	8.791232	22.920988	79.562167	20.239773	122.722928
	9.111398	23.558134	78.772149	21.673811	124.004094
	8.643463	24.991712	79.246160	22.470499	126.708371
	9.086770	23.876707	77.666125	22.470499	124.013330
	9.209910	25.150999	77.824128	20.239773	123.214900
	9.012885	21.805983	76.718104	22.151823	120.675910
	8.914373	21.646696	77.034110	20.239773	118.920580
	8.692720	23.398847	79.404163	21.355136	124.158147
	8.939001	22.761702	77.508121	20.239773	120.509596
	8.865117	23.239561	77.508121	19.443086	120.190768
	9.111398	24.673140	76.560100	21.036461	122.269701
	8.889745	22.920988	76.718104	19.443086	119.082178
	9.111398	21.646696	78.456142	23.904536	124.007374
	8.963629	22.602415	77.666125	20.239773	120.508313
	9.160654	20.372404	78.614146	18.487061	117.473611
	8.939001	24.195280	79.088156	20.877123	124.160560
	9.209910	19.257399	75.612079	19.124411	113.993888
	9.062142	26.425291	78.614146	22.151823	127.191260
	9.357679	20.690977	76.560100	20.558449	117.809526
	9.086770	23.239561	77.350118	21.036461	121.626140
	9.283795	21.646696	77.192114	18.327724	117.166533
	9.111398	24.195280	78.298139	22.151823	124.645242
	9.283795	22.443129	78.614146	21.195799	122.253073
	9.012885	26.584578	81.142202	26.453936	134.180715
	8.988257	21.168837	77.666125	20.239773	119.074735
	8.963629	22.443129	78.298139	21.514474	122.255741
	8.840489	24.035993	79.088156	21.992486	125.116636
	8.741976	23.080275	77.824128	21.833149	122.737551
	8.865117	23.080275	77.192114	21.514474	121.786862
	9.160654	24.354567	78.298139	21.514474	124.167179
	9.136026	23.876707	78.614146	20.399111	122.889964
	8.914373	20.531690	76.876107	18.805736	116.213533
	8.889745	22.602415	79.878174	20.877123	123.357712
	9.160654	21.487409	76.402096	18.168386	116.057892
	9.086770	21.487409	75.928086	20.399111	117.814607
	9.234539	20.372404	74.506055	19.283748	114.162207
	9.111398	26.584578	78.772149	21.514474	126.871200
	9.185282	21.168837	75.138069	19.602424	115.909329
	8.988257	22.602415	78.614146	20.717786	121.934347
	9.357679	21.487409	78.456142	20.239773	120.183325
	8.963629	24.673140	78.614146	21.036461	124.323746
	8.963629	24.991712	79.878174	25.019899	129.889785
	8.815860	23.717420	78.772149	22.629836	125.119405
	9.062142	23.717420	76.718104	20.399111	120.834635
	9.012885	23.080275	77.192114	19.761761	120.034150
	8.889745	22.283842	77.824128	19.283748	119.391718
	8.791232	24.354567	80.984198	21.833149	127.171913
	8.741976	23.876707	78.456142	21.673811	124.006660
	9.037514	23.876707	79.720170	23.107848	126.704726
	8.815860	24.832426	76.718104	19.921099	121.471628
	9.062142	21.487409	75.296072	20.239773	117.023255
	8.889745	21.487409	76.244093	19.283748	117.015251
	9.037514	22.920988	76.876107	21.992486	121.789581
	9.012885	22.761702	76.402096	19.602424	118.766222
	9.185282	19.416685	74.980065	18.646399	113.043149
	9.111398	24.832426	79.878174	19.921099	124.631698
	9.185282	22.602415	76.402096	17.690373	116.694885
	9.062142	22.124555	78.456142	20.558449	121.139146
	9.357679	21.328123	76.718104	19.921099	117.967325
	8.889745	24.195280	78.614146	24.223211	127.032637
	9.136026	22.920988	76.718104	21.036461	120.675553
	8.815860	23.717420	79.404163	22.151823	125.273407
	9.012885	26.106718	80.036177	21.355136	127.498031
	8.889745	23.717420	78.930153	21.992486	124.640059
	8.865117	21.805983	78.614146	20.717786	121.137914
	8.717348	24.195280	79.246160	22.151823	125.593263
	8.840489	23.558134	77.508121	21.673811	122.740066
	8.766604	22.124555	75.454076	19.921099	117.499730
	8.791232	23.558134	78.930153	21.833149	124.321435
	9.012885	24.195280	76.560100	19.124411	119.879791
	8.939001	23.239561	78.456142	20.877123	122.572826
	9.209910	20.372404	77.350118	19.283748	117.006270
	8.914373	24.195280	78.456142	21.355136	124.006558
	9.160654	23.080275	77.034110	21.355136	121.469521
	8.914373	23.558134	77.508121	21.036461	122.102716
	9.111398	19.575972	72.136002	15.300311	107.012285
	9.012885	25.469572	77.666125	21.992486	125.128183
	9.308423	21.009550	77.508121	21.833149	120.350819
	9.012885	22.602415	76.876107	20.080436	119.558958
	8.692720	21.965269	77.350118	19.921099	119.236485
	8.914373	25.469572	81.774216	22.311161	129.554949
	9.012885	22.602415	75.770083	18.487061	116.859559
	9.086770	24.354567	76.876107	20.558449	121.789122
	8.815860	21.646696	76.876107	20.558449	119.081252
	8.963629	20.531690	75.454076	18.327724	114.313490
	8.717348	24.832426	78.456142	21.673811	124.962379
	9.185282	22.443129	77.192114	20.239773	119.875016
	9.086770	24.832426	80.352184	21.195799	126.380409
	9.136026	24.195280	77.824128	22.151823	124.171232
	8.889745	20.531690	77.192114	18.805736	116.529540
	8.939001	22.283842	77.666125	21.036461	120.986428
	8.914373	23.239561	77.508121	19.921099	120.668780
	8.766604	22.920988	77.034110	18.805736	118.760834
	8.963629	23.876707	78.298139	21.673811	123.848657
	8.939001	24.832426	79.246160	20.558449	124.637034
	8.939001	23.398847	76.560100	21.195799	121.154746
	8.865117	21.805983	78.930153	20.080436	120.816571
	9.086770	21.487409	76.876107	19.443086	117.806602
	9.062142	25.150999	79.246160	21.992486	126.389645
	9.283795	21.009550	74.190048	18.965074	114.164671
	9.062142	23.558134	78.456142	21.195799	123.210074
	9.185282	22.920988	74.506055	17.690373	115.117416
	8.815860	22.443129	75.928086	20.239773	118.610988
	9.111398	19.894544	77.666125	19.283748	116.844418
	8.889745	25.469572	80.036177	22.789174	128.294922
	9.037514	19.735258	73.400030	16.415674	109.550961
	8.692720	23.876707	77.824128	24.541886	126.242721
	9.136026	23.876707	77.824128	21.195799	122.896634
	9.062142	25.628858	76.560100	21.195799	123.384757
	8.594207	21.487409	76.718104	19.443086	117.648599
	8.692720	22.283842	75.928086	20.877123	119.089051
	8.914373	23.717420	78.298139	21.195799	123.211358
	8.865117	23.239561	78.930153	20.558449	122.728162
	8.889745	21.646696	77.666125	21.833149	121.145969
	8.988257	23.080275	75.138069	19.443086	117.661429
	8.668092	22.443129	77.192114	20.877123	120.512366
	8.741976	21.328123	76.718104	18.965074	117.011300
	8.815860	23.239561	75.454076	23.267186	121.960823
	8.988257	21.805983	77.034110	20.080436	118.920529
	8.618835	24.035993	80.352184	22.311161	126.699339
	9.111398	26.903150	80.352184	23.585861	130.841195
	8.741976	23.876707	77.508121	19.124411	120.509239
	8.717348	21.487409	77.034110	20.399111	118.920631
	8.741976	24.354567	78.140135	21.514474	124.009175
	8.791232	23.398847	76.876107	21.992486	122.267441
	9.037514	23.558134	78.456142	21.673811	123.688087
	8.791232	23.717420	79.088156	21.833149	124.638725
	9.062142	23.239561	75.928086	18.009048	117.176695
	8.815860	22.602415	80.352184	18.487061	121.441660
	9.062142	20.531690	76.718104	20.239773	117.489568
	8.766604	23.717420	77.666125	20.717786	122.101331
	8.988257	23.398847	76.876107	24.701224	124.976178
	8.643463	22.920988	78.614146	20.558449	122.093582
	8.840489	21.646696	75.138069	20.239773	117.024538
	8.741976	25.469572	77.824128	20.558449	123.852148
	9.086770	19.735258	76.718104	19.921099	116.374460
	9.160654	20.690977	76.086090	19.602424	116.379490
	9.062142	23.876707	78.140135	21.833149	123.849990
	8.889745	21.805983	76.402096	20.239773	118.447852
	8.520323	24.354567	78.930153	21.195799	124.480518
	9.382307	21.487409	72.926020	18.327724	112.741153
	9.062142	20.531690	75.928086	18.965074	115.424850
	9.086770	21.646696	76.086090	22.948511	120.681297
	8.889745	22.283842	76.560100	19.761761	118.605703
	8.988257	24.195280	80.510188	23.267186	127.972654
	8.791232	23.080275	78.140135	21.514474	122.734883
	8.914373	21.965269	73.874041	19.921099	115.760408
	8.741976	23.558134	76.402096	20.717786	120.678016
	8.717348	23.558134	78.772149	22.789174	125.119457
	8.914373	22.443129	74.980065	21.195799	118.618992
	9.012885	24.195280	78.140135	21.036461	123.371876
	9.086770	20.372404	75.454076	19.124411	114.950891
	8.815860	23.080275	77.192114	20.239773	120.512162
	9.234539	22.124555	75.770083	21.195799	119.090437
	9.136026	22.920988	77.192114	24.223211	124.336313
	9.234539	20.531690	75.612079	20.080436	116.224205
	9.012885	23.558134	77.034110	21.992486	122.584730
	9.209910	20.372404	74.822062	18.646399	113.840864
	8.914373	23.876707	79.404163	21.514474	124.795344
	8.963629	23.717420	77.982132	21.036461	122.736013
	9.136026	24.513853	78.298139	21.355136	124.167128
	8.889745	22.761702	77.666125	21.833149	122.260975
	9.037514	21.487409	75.612079	20.239773	117.339262
	8.692720	23.558134	75.928086	21.355136	120.841356
	9.012885	21.487409	75.770083	18.168386	115.425878
	9.037514	24.035993	76.876107	22.629836	123.541937
	9.259167	23.398847	75.612079	19.124411	118.135337
	8.889745	23.717420	79.562167	23.426524	126.706111
	8.963629	19.735258	75.454076	18.487061	113.676395
	8.988257	23.558134	79.088156	21.355136	124.001426
	9.012885	24.035993	79.088156	22.311161	125.435311
	8.520323	23.080275	77.350118	23.585861	124.016253
	8.840489	24.673140	75.770083	21.036461	121.479683
	8.939001	23.717420	77.192114	21.195799	122.105333
	8.791232	22.920988	76.244093	21.514474	120.679554
	9.185282	22.283842	76.402096	19.124411	117.810350
	9.012885	23.239561	78.930153	21.514474	123.684187
	9.308423	21.328123	76.086090	19.443086	116.857299
	9.012885	25.310286	79.088156	23.904536	128.302978
	9.086770	24.035993	78.772149	20.717786	123.525929
	8.963629	23.080275	77.508121	22.151823	122.740219
	9.111398	20.372404	74.348051	18.805736	113.526191
	8.791232	24.673140	78.930153	23.904536	127.507828
	8.988257	22.920988	77.192114	21.992486	122.105588
	8.889745	23.398847	77.824128	21.833149	123.056124
	8.939001	25.310286	79.562167	23.745199	128.617651
	8.939001	23.398847	76.086090	19.283748	118.768686
	8.766604	22.602415	76.560100	21.355136	120.517651
	8.963629	23.080275	76.876107	20.239773	120.196155
	8.840489	23.558134	77.666125	23.426524	124.650782
	8.889745	20.850264	76.086090	18.965074	115.901427
	8.766604	23.239561	77.192114	21.195799	121.627474
	9.062142	21.805983	75.612079	17.531036	114.949097
	8.717348	23.717420	77.824128	21.036461	122.578010
	9.505448	23.239561	78.140135	23.107848	124.487544
	9.062142	21.328123	74.190048	18.327724	113.845894
	8.963629	23.717420	78.140135	23.745199	125.602754
	8.717348	23.876707	77.034110	21.992486	122.903303
	8.741976	23.080275	75.612079	19.761761	118.454115
	8.939001	23.558134	77.982132	19.761761	121.302027
	8.594207	21.328123	76.560100	22.311161	120.199384
	8.544951	19.416685	77.034110	17.690373	114.141169
	8.569579	24.195280	78.140135	22.151823	124.487238
	8.865117	21.009550	74.506055	19.443086	114.958691
	8.939001	25.628858	77.982132	22.151823	125.762814
	9.037514	23.398847	76.244093	20.558449	120.201389
	8.791232	23.080275	76.402096	21.195799	120.678169
	9.234539	22.443129	77.034110	22.789174	122.266413
	9.012885	24.673140	79.404163	22.311161	126.388464
	8.963629	22.443129	77.192114	20.717786	120.353029
	8.569579	22.602415	77.824128	20.080436	120.506979
	8.914373	25.469572	77.350118	21.036461	123.856151
	8.791232	25.469572	78.140135	23.107848	126.717556
	8.741976	22.283842	75.454076	20.877123	118.615041
	9.012885	22.602415	77.192114	22.789174	122.583703
	8.569579	24.832426	78.140135	22.470499	125.443060
	8.963629	21.328123	75.138069	19.761761	116.227953
	8.865117	21.328123	76.244093	18.646399	116.218615
	9.111398	25.150999	76.560100	22.311161	124.022260
	8.692720	24.354567	77.508121	22.151823	124.014511
	9.062142	23.558134	77.982132	22.470499	124.010764
	8.865117	24.195280	77.982132	22.948511	125.125923
	8.963629	24.513853	78.614146	22.151823	125.279822
	8.840489	25.947432	79.878174	24.063874	129.889479
	8.988257	24.513853	80.984198	20.717786	126.215837
	8.766604	26.584578	79.088156	25.975924	131.648657
	8.544951	24.832426	79.404163	23.426524	127.663112
	8.668092	21.965269	76.876107	21.195799	120.037174
	8.840489	22.602415	75.454076	19.602424	117.658914
	9.062142	21.805983	74.822062	20.717786	117.345830
	8.815860	24.195280	76.244093	20.399111	120.838484
	8.988257	22.761702	76.402096	19.602424	118.766222
	8.668092	23.558134	78.456142	23.267186	125.281462
	8.939001	21.646696	79.562167	19.124411	120.333274
	8.594207	24.354567	78.456142	22.151823	124.962532
	8.791232	24.991712	79.246160	22.629836	126.867708
	8.618835	22.602415	76.718104	24.701224	124.021742
	8.618835	26.425291	77.508121	21.992486	125.925898
	8.939001	23.080275	76.086090	21.355136	120.521500
	8.668092	22.920988	79.720170	20.558449	123.199607
	8.741976	21.646696	77.192114	19.761761	118.600571
	8.569579	24.832426	78.772149	22.789174	126.393749
	8.939001	21.965269	75.770083	19.124411	116.859763
	8.988257	23.717420	76.560100	21.673811	121.951332
	9.086770	22.920988	75.770083	19.443086	118.134156
	8.914373	25.628858	78.298139	24.541886	128.468883
	8.914373	21.805983	76.876107	19.602424	118.284513
	8.889745	25.310286	78.772149	20.877123	124.959558
	9.062142	23.717420	77.666125	22.151823	123.535369
	8.766604	23.080275	78.140135	20.877123	122.097533
	8.939001	25.150999	77.666125	23.904536	126.721660
	9.160654	26.106718	76.560100	21.514474	124.181292
	8.815860	24.991712	78.298139	23.426524	126.716375
	9.062142	20.372404	74.822062	18.327724	113.522189
	8.889745	23.876707	77.192114	21.992486	123.061307
	9.086770	21.168837	75.454076	19.602424	116.225336
	8.791232	23.558134	79.246160	21.673811	124.478105
	9.160654	24.991712	77.982132	21.514474	124.488318
	8.766604	20.372404	75.928086	17.690373	113.990864
	8.840489	22.124555	75.928086	20.877123	118.929765
	8.865117	25.628858	78.772149	23.107848	127.508856
	8.668092	23.080275	76.244093	22.948511	122.272878
	9.209910	20.850264	75.612079	19.921099	116.383441
	8.618835	24.035993	75.296072	19.921099	119.253164
	8.988257	25.310286	79.088156	22.629836	127.028278
	9.111398	22.920988	81.300205	22.311161	126.532354
	9.136026	19.735258	74.822062	18.487061	113.044381
	8.766604	23.398847	77.824128	21.833149	123.056124
	8.865117	25.150999	79.246160	23.267186	127.664344
	8.544951	23.558134	74.822062	17.849711	116.229907
	8.791232	24.035993	76.876107	21.514474	122.426574
	8.717348	24.673140	79.246160	22.789174	126.708473
	8.939001	22.124555	77.982132	23.745199	123.851886
	8.766604	23.558134	77.192114	21.195799	121.946046
	8.766604	22.761702	77.982132	20.558449	121.302282
	8.766604	20.850264	75.770083	19.761761	116.382107
	8.815860	24.991712	75.928086	20.239773	121.159572
	9.160654	22.283842	72.926020	19.283748	114.493610
	8.963629	22.920988	76.876107	20.717786	120.514881
	9.037514	22.283842	76.086090	22.151823	120.521755
	8.717348	26.903150	80.036177	24.223211	131.162538
	8.914373	21.646696	76.402096	20.239773	118.288566
	8.717348	22.920988	76.560100	19.921099	119.402186
	9.012885	27.381010	78.456142	21.355136	127.192288
	8.594207	23.080275	76.718104	21.992486	121.790864
	8.618835	23.876707	77.982132	22.151823	124.010662
	8.668092	24.035993	76.402096	21.992486	122.430576
	8.741976	23.876707	77.508121	21.195799	122.580626
	9.086770	21.168837	75.612079	20.080436	116.861351
	8.668092	26.266004	77.350118	20.877123	124.493246
	9.209910	19.575972	74.980065	19.443086	113.999122
	8.865117	22.920988	76.876107	20.877123	120.674219
	9.111398	23.239561	76.718104	22.151823	122.109488
	8.668092	23.717420	76.244093	19.602424	119.563937
	8.914373	24.035993	78.140135	21.195799	123.371927
	8.668092	26.266004	76.086090	21.673811	124.025905
	8.815860	23.717420	76.718104	20.399111	120.834635
	9.012885	23.717420	80.510188	22.789174	127.016782
	8.815860	23.080275	76.718104	20.717786	120.516164
	9.062142	22.443129	76.244093	20.558449	119.245670
	8.815860	23.558134	76.560100	20.239773	120.358007
	9.209910	20.372404	75.138069	20.717786	116.228259
	8.914373	25.628858	75.612079	20.877123	122.118061
	9.012885	21.487409	75.454076	19.602424	116.543909
	8.692720	23.080275	78.614146	21.992486	123.686906
	8.692720	22.443129	77.192114	19.124411	118.759654
	8.791232	25.628858	80.194181	23.426524	129.249562
	8.815860	22.283842	75.770083	19.283748	117.337673
	8.791232	21.965269	74.348051	21.673811	117.987131
	8.668092	25.310286	74.348051	20.399111	120.057448
	8.865117	20.690977	74.980065	19.602424	115.273466
	8.914373	23.717420	77.034110	22.151823	122.903355
	9.012885	22.443129	76.244093	19.443086	118.130307
	8.594207	22.124555	76.402096	19.443086	117.969738
	8.791232	23.558134	77.982132	21.833149	123.373414
	8.741976	27.381010	77.824128	24.860561	130.065699
	8.618835	22.761702	75.138069	19.921099	117.820869
	8.766604	21.009550	75.928086	20.239773	117.177410
	8.692720	22.920988	74.822062	19.761761	117.504811
	8.865117	19.098112	72.926020	19.124411	111.148543
	8.643463	24.195280	76.244093	21.355136	121.794509
	9.185282	24.673140	76.718104	20.717786	122.109029
	8.963629	24.195280	77.824128	20.717786	122.737194
	9.012885	22.920988	77.666125	21.992486	122.579599
	8.889745	24.195280	75.770083	21.833149	121.798511
	9.086770	22.124555	75.454076	21.355136	118.933767
	8.988257	23.558134	76.718104	22.151823	122.428061
	8.692720	23.239561	75.928086	21.514474	120.682120
	8.840489	24.673140	76.086090	19.921099	120.680328
	8.840489	23.558134	77.192114	19.921099	120.671346
	9.037514	20.213117	74.980065	18.327724	113.520906
	8.963629	23.239561	77.034110	20.558449	120.832120
	8.914373	22.124555	75.612079	20.239773	117.976408
	8.495695	23.876707	77.034110	22.311161	123.221978
	8.865117	23.717420	75.770083	21.036461	120.523964
	8.766604	25.788145	78.140135	21.833149	125.761428
	8.791232	23.080275	78.930153	21.036461	123.046888
	8.741976	22.124555	76.876107	21.833149	120.833811
	8.618835	23.398847	77.192114	20.558449	121.149410
	9.062142	21.805983	74.822062	18.805736	115.433780
	8.520323	24.195280	77.666125	23.107848	124.969253
	9.160654	22.443129	72.136002	18.327724	112.906854
	8.889745	25.469572	77.034110	21.355136	123.858818
	8.939001	21.646696	75.928086	19.443086	117.017868
	8.618835	24.991712	78.298139	25.657249	128.947100
	8.963629	21.487409	77.034110	19.761761	118.283281
	8.594207	21.328123	74.348051	18.965074	114.641248
	8.889745	24.513853	76.718104	21.036461	122.268418
	8.865117	23.080275	75.612079	20.717786	119.410139
	8.692720	21.009550	75.454076	20.239773	116.703399
	8.692720	23.558134	75.928086	21.355136	120.841356
	8.791232	23.876707	77.192114	21.992486	123.061307
	8.939001	21.168837	74.506055	19.283748	114.958640
	8.914373	24.195280	77.982132	21.673811	123.851223
	9.062142	23.558134	76.560100	18.327724	118.445958
	8.643463	22.920988	76.718104	23.904536	123.543628
	8.840489	21.009550	74.822062	20.239773	116.071385
	8.520323	25.150999	77.350118	22.470499	124.971615
	8.668092	23.558134	77.508121	21.355136	122.421391
	8.840489	23.558134	75.770083	21.833149	121.161365
	8.594207	25.469572	77.192114	21.355136	124.016822
	8.717348	23.876707	77.982132	20.558449	122.417287
	8.544951	21.805983	76.718104	21.992486	120.516572
	8.914373	22.124555	77.508121	20.239773	119.872450
	8.741976	24.354567	77.350118	21.355136	123.059820
	8.914373	22.124555	75.454076	18.646399	116.225030
	8.840489	23.398847	76.876107	21.195799	121.470753
	9.012885	24.195280	76.244093	20.558449	120.997821
	8.914373	24.673140	78.298139	21.195799	124.167077
	9.209910	21.328123	76.560100	22.311161	120.199384
	8.963629	23.080275	77.982132	20.877123	121.939530
	9.012885	22.920988	77.666125	21.355136	121.942249
	8.668092	22.920988	75.770083	19.443086	118.134156
	8.815860	22.124555	74.506055	21.355136	117.985746
	8.865117	23.080275	75.928086	19.443086	118.451447
	8.791232	22.761702	75.928086	21.195799	119.885586
	8.939001	23.239561	77.508121	21.514474	122.262156
	8.840489	25.788145	80.352184	21.355136	127.495465
	9.259167	21.646696	75.770083	19.761761	117.178539
	8.766604	22.920988	78.930153	20.558449	122.409589
	8.939001	23.558134	75.612079	21.036461	120.206674
	8.274041	22.920988	76.560100	20.717786	120.198874
	8.766604	21.487409	74.664058	20.399111	116.550579
	8.643463	23.717420	76.718104	19.602424	120.037948
	8.889745	23.398847	75.928086	22.948511	122.275445
	8.594207	23.080275	76.876107	21.036461	120.992843
	8.668092	25.788145	78.140135	21.195799	125.124078
	9.012885	23.717420	77.666125	21.195799	122.579344
	8.668092	22.602415	76.876107	19.602424	119.080945
	8.988257	23.876707	76.876107	21.195799	121.948612
	8.692720	24.035993	77.034110	20.877123	121.947227
	8.865117	21.646696	73.716037	22.470499	117.833231
	8.692720	23.558134	76.876107	21.036461	121.470702
	9.333051	24.832426	76.718104	20.877123	122.427653
	8.939001	21.965269	75.770083	19.283748	117.019100
	9.234539	20.372404	76.402096	19.443086	116.217587
	8.815860	24.035993	77.508121	21.673811	123.217926
	8.939001	24.832426	77.034110	21.036461	122.902997
	8.889745	23.080275	75.612079	21.514474	120.206827
	8.914373	24.991712	77.350118	21.514474	123.856304
	8.668092	26.266004	79.720170	23.107848	129.094023
	8.766604	22.443129	77.982132	20.558449	120.983709
	8.569579	22.124555	79.088156	18.965074	120.177785
	8.914373	22.761702	76.402096	20.717786	119.881584
	8.815860	23.558134	76.402096	20.877123	120.837354
	8.914373	22.761702	77.034110	22.151823	121.947635
	8.766604	24.991712	76.876107	19.921099	121.788918
	8.889745	24.035993	76.718104	22.311161	123.065258
	9.111398	21.328123	75.770083	19.283748	116.381954
	8.988257	24.832426	81.458208	23.267186	129.557820
	9.259167	20.531690	74.348051	18.009048	112.888790
	8.914373	25.150999	82.564233	22.789174	130.504405
	9.136026	24.673140	76.402096	18.965074	120.040310
	8.840489	22.920988	76.244093	20.399111	119.564192
	9.111398	22.124555	76.244093	20.877123	119.245772
	8.668092	22.283842	75.612079	19.443086	117.339007
	8.865117	20.531690	73.400030	18.805736	112.737456
	8.766604	24.354567	78.614146	21.992486	124.961198
	9.480820	24.354567	78.772149	22.151823	125.278539
	8.939001	26.425291	78.772149	21.355136	126.552576
	9.037514	22.920988	78.930153	23.904536	125.755677
	8.791232	22.761702	76.718104	20.877123	120.356929
	8.717348	24.195280	77.824128	21.673811	123.693219
	8.939001	23.239561	74.980065	19.921099	118.140724
	8.569579	23.239561	77.508121	19.283748	120.031430
	9.012885	25.150999	76.244093	20.239773	121.634865
	8.618835	24.195280	76.876107	20.080436	121.151823
	9.111398	20.372404	77.034110	22.470499	119.877013
	8.717348	23.398847	77.192114	21.355136	121.946098
	9.579332	23.876707	77.192114	21.992486	123.061307
	9.062142	23.876707	76.402096	19.921099	120.199902
	9.012885	19.894544	75.138069	18.965074	113.997687
	8.840489	26.266004	78.614146	21.673811	126.553961
	8.741976	23.717420	78.930153	21.992486	124.640059
	8.766604	23.876707	80.984198	22.789174	127.650079
	8.840489	22.602415	77.508121	20.877123	120.987659
	8.717348	23.558134	77.192114	20.558449	121.308696
	8.815860	22.443129	76.876107	19.921099	119.240334
	8.692720	25.150999	75.928086	23.107848	124.186934
	8.791232	23.717420	77.192114	21.833149	122.742683
	9.185282	24.195280	78.140135	22.470499	124.805914
	8.865117	22.920988	76.086090	19.283748	118.290826
	9.012885	22.920988	76.718104	20.239773	119.878865
	8.766604	23.239561	80.826194	20.877123	124.942879
	8.889745	23.558134	76.718104	19.921099	120.197336
	9.136026	26.106718	78.140135	22.789174	127.036027
	9.308423	21.009550	75.138069	19.283748	115.431367
	9.111398	23.876707	77.508121	21.992486	123.377314
	9.333051	21.805983	74.822062	18.965074	115.593118
	9.062142	24.035993	77.982132	23.585861	125.603986
	9.185282	21.646696	77.508121	20.080436	119.235253
	8.963629	26.903150	77.982132	22.151823	127.037105
	9.234539	21.487409	78.930153	20.239773	120.657336
	8.791232	23.080275	77.508121	20.877123	121.465519
	8.939001	24.035993	77.824128	22.311161	124.171283
	8.865117	24.035993	75.928086	20.877123	120.841203
	8.889745	24.195280	78.772149	24.063874	127.031302
	9.062142	20.850264	73.084023	18.168386	112.102672
	8.914373	26.266004	77.666125	21.833149	125.765277
	9.012885	22.920988	78.456142	21.195799	122.572928
	8.766604	23.876707	77.982132	20.558449	122.417287
	9.259167	19.416685	73.084023	18.168386	110.669094
	8.840489	23.239561	76.086090	20.399111	119.724762
	8.791232	19.098112	73.716037	20.877123	113.691272
	9.062142	29.770307	80.194181	25.338573	135.303062
	9.283795	20.690977	74.822062	19.124411	114.637450
	9.062142	22.443129	78.140135	19.761761	120.345024
	9.136026	20.531690	75.138069	20.080436	115.750195
	9.111398	24.673140	78.930153	21.992486	125.595778
	9.037514	21.805983	76.718104	20.877123	119.401210
	8.865117	24.991712	75.612079	19.921099	120.524890
	8.939001	23.398847	76.402096	18.487061	118.288005
	8.741976	22.761702	77.350118	21.673811	121.785630
	9.209910	21.487409	74.506055	20.080436	116.073900
	8.865117	23.717420	77.192114	23.107848	124.017383
	8.963629	23.398847	80.036177	21.673811	125.108835
	8.988257	23.558134	77.508121	21.355136	122.421391
	9.086770	25.628858	78.614146	21.195799	125.438803
	8.741976	24.035993	78.930153	24.382548	127.348695
	8.766604	22.602415	77.034110	21.355136	120.991662
	9.012885	24.513853	77.034110	21.992486	123.540449
	8.889745	24.354567	78.456142	22.789174	125.599882
	8.914373	24.195280	79.720170	21.833149	125.748599
	8.815860	25.310286	77.508121	21.514474	124.332880
	8.939001	24.195280	79.088156	19.443086	122.726522
	8.914373	22.920988	77.508121	24.223211	124.652320
	9.037514	20.213117	74.348051	18.805736	113.366904
	8.889745	24.832426	77.034110	22.151823	124.018360
	9.382307	20.053831	74.506055	18.646399	113.206284
	9.012885	25.150999	77.982132	22.470499	125.603629
	9.333051	24.991712	76.402096	20.399111	121.792920
	9.185282	24.035993	79.246160	21.195799	124.477952
	9.283795	20.690977	76.560100	22.151823	119.402901
	8.963629	23.558134	76.560100	21.514474	121.632708
	9.136026	23.239561	77.508121	21.992486	122.740168
	8.889745	22.920988	77.034110	19.921099	119.876197
	8.939001	22.602415	74.190048	20.080436	116.872898
	9.012885	26.106718	78.772149	22.948511	127.827378
	8.668092	23.398847	77.666125	22.311161	123.376133
	8.791232	24.195280	78.772149	22.948511	125.915940
	8.914373	22.124555	77.824128	19.921099	119.869782
	8.840489	21.168837	75.454076	19.124411	115.747323
	8.471067	24.673140	76.718104	21.195799	122.587042
	8.741976	25.788145	77.824128	23.426524	127.038797
	8.372554	22.283842	77.034110	21.195799	120.513751
	8.840489	22.283842	75.612079	21.036461	118.932382
	8.914373	24.673140	78.456142	22.311161	125.440443
	9.012885	22.602415	75.770083	21.195799	119.568296
	8.914373	22.602415	77.508121	21.514474	121.625010
	9.111398	25.628858	79.088156	21.833149	126.550163
	8.865117	24.673140	77.982132	23.107848	125.763120
	9.111398	21.009550	75.928086	20.399111	117.336747
	8.791232	25.469572	79.088156	23.585861	128.143589
	8.988257	24.035993	78.298139	21.514474	123.848606
	8.741976	24.035993	78.930153	22.629836	125.595982
	9.062142	24.195280	79.562167	23.107848	126.865295
	8.840489	26.425291	81.300205	21.673811	129.399307
	9.062142	22.443129	78.140135	22.948511	123.531774
	9.012885	22.602415	77.192114	20.558449	120.352978
	8.840489	23.239561	76.718104	21.992486	121.950151
	8.963629	23.717420	77.982132	20.558449	122.258001
	8.569579	24.673140	78.140135	24.541886	127.355161
	9.185282	22.920988	77.508121	21.036461	121.465570
	8.988257	24.673140	78.456142	21.195799	124.325080
	9.111398	21.009550	76.876107	20.080436	117.966093
	9.185282	23.717420	77.982132	21.673811	123.373363
	9.111398	21.009550	75.296072	19.283748	115.589371
	8.988257	23.876707	77.350118	20.399111	121.625936
	9.382307	21.805983	75.138069	21.355136	118.299187
	9.209910	24.673140	77.666125	20.558449	122.897713
	9.308423	23.398847	77.666125	23.267186	124.332158
	8.741976	23.398847	78.140135	20.558449	122.097431
	9.111398	23.398847	79.088156	24.860561	127.347565
	8.692720	23.080275	78.140135	21.195799	122.416208
	9.234539	22.920988	78.298139	22.629836	123.848963
	9.037514	25.469572	77.034110	20.717786	123.221469
	8.668092	23.080275	77.034110	20.877123	120.991508
	8.914373	21.168837	74.822062	19.761761	115.752659
	8.668092	22.124555	76.560100	20.239773	118.924429
	9.086770	22.602415	76.560100	22.470499	121.633014
	8.914373	24.035993	78.140135	21.833149	124.009277
	9.283795	22.124555	77.824128	20.558449	120.507132
	9.062142	25.469572	77.982132	20.717786	124.169490
	9.209910	20.372404	75.612079	18.965074	114.949556
	8.988257	23.876707	78.140135	22.789174	124.806016
	9.136026	20.213117	75.454076	18.646399	114.313592
	9.086770	23.398847	77.508121	22.789174	123.696142
	9.136026	22.283842	78.298139	21.833149	122.415129
	8.791232	25.469572	81.142202	22.151823	128.763597
	9.160654	23.876707	77.508121	20.717786	122.102614
	8.594207	23.080275	78.140135	23.745199	124.965608
	9.037514	21.965269	77.350118	22.151823	121.467210
	8.692720	23.398847	77.824128	21.195799	122.418774
	8.741976	22.761702	75.928086	21.673811	120.363599
	8.865117	23.558134	78.772149	21.036461	123.366744
	9.012885	25.310286	79.562167	21.833149	126.705601
	8.963629	21.646696	77.666125	20.239773	119.552594
	8.791232	20.213117	77.666125	21.195799	119.075040
	9.111398	22.602415	77.034110	20.717786	120.354312
	8.865117	24.354567	78.772149	23.267186	126.393901
	9.111398	18.620252	73.716037	17.849711	110.186000
	8.889745	25.310286	76.876107	22.151823	124.338216
	9.308423	20.372404	74.348051	19.283748	114.004204
	9.185282	22.761702	77.982132	21.195799	121.939632
	9.357679	21.487409	77.192114	19.921099	118.600622
	9.234539	23.876707	78.456142	20.239773	122.572622
	9.234539	21.487409	77.034110	20.399111	118.920631
	9.283795	26.743864	79.404163	22.151823	128.299850
	9.382307	21.168837	75.770083	22.311161	119.250080
	8.791232	24.035993	77.824128	23.107848	124.967970
	9.185282	21.328123	77.508121	21.195799	120.032043
	8.889745	23.558134	76.876107	20.717786	121.152027
	9.062142	21.168837	76.560100	20.399111	118.128048
	8.668092	23.080275	79.878174	22.629836	125.588284
	9.086770	25.628858	77.824128	21.673811	125.126798
	8.840489	25.628858	78.140135	24.063874	127.832867
	8.668092	23.398847	77.824128	22.311161	123.534137
	8.865117	21.965269	76.244093	20.558449	118.767810
	8.865117	23.239561	77.034110	19.921099	120.194770
	9.111398	23.080275	78.140135	19.761761	120.982170
	8.914373	22.602415	80.194181	20.877123	123.673719
	9.136026	23.558134	76.402096	19.761761	119.721992
	9.012885	21.805983	76.086090	22.470499	120.362571
	8.963629	20.372404	76.086090	20.239773	116.698267
	8.865117	24.673140	78.772149	22.789174	126.234462
	9.209910	21.646696	75.454076	19.602424	116.703195
	8.963629	22.443129	77.824128	23.107848	123.375105
	9.160654	24.035993	77.666125	20.080436	121.782554
	8.988257	23.558134	77.982132	21.992486	123.532752
	8.741976	22.124555	80.984198	20.399111	123.507865
	8.914373	23.398847	77.982132	21.833149	123.214128
	8.963629	23.080275	77.982132	21.514474	122.576880
	8.939001	21.805983	76.244093	20.558449	118.608524
	9.012885	25.947432	77.508121	21.673811	125.129364
	9.062142	22.761702	75.928086	20.399111	119.088899
	8.963629	22.283842	78.140135	22.151823	122.575801
	9.579332	20.531690	77.034110	18.646399	116.212199
	9.160654	24.035993	78.614146	23.585861	126.236000
	9.209910	20.690977	78.772149	19.761761	119.224887
	9.062142	23.080275	78.140135	21.992486	123.212896
	9.185282	23.558134	76.402096	19.602424	119.562654
	8.717348	24.354567	77.824128	21.355136	123.533831
	9.357679	20.372404	76.244093	20.399111	117.015608
	9.062142	25.788145	78.772149	23.426524	127.986818
	9.185282	22.761702	78.140135	24.860561	125.762398
	8.840489	24.673140	80.194181	23.267186	128.134506
	8.914373	24.513853	77.824128	21.833149	124.171130
	9.308423	23.558134	76.560100	21.195799	121.314032
	8.840489	23.876707	79.088156	23.267186	126.232049
	8.963629	25.310286	79.878174	24.382548	129.571008
	8.717348	23.558134	77.666125	21.514474	122.738732
	9.160654	24.195280	78.456142	23.904536	126.555958
	8.791232	25.628858	83.512254	24.860561	134.001674
	9.111398	23.398847	76.560100	20.080436	120.039384
	8.914373	23.876707	78.456142	20.558449	122.891297
	8.988257	22.602415	77.666125	22.789174	123.057713
	8.766604	22.443129	76.244093	20.558449	119.245670
	9.111398	21.328123	75.454076	19.602424	116.384622
	9.554704	24.673140	78.930153	22.311161	125.914453
	9.037514	22.761702	74.190048	19.124411	116.076160
	8.815860	23.717420	77.508121	21.514474	122.740015
	9.037514	19.735258	78.140135	19.602424	117.477817
	9.062142	24.991712	79.720170	24.223211	128.935093
	9.012885	22.283842	77.192114	20.399111	119.875067
	8.766604	24.354567	78.614146	22.470499	125.439211
	8.741976	21.965269	76.718104	19.761761	118.445134
	8.741976	26.425291	78.140135	24.223211	128.788637
	9.259167	21.168837	76.876107	21.195799	119.240742
	8.815860	23.717420	78.456142	21.992486	124.166049
	8.939001	23.239561	78.298139	21.673811	123.211511
	8.865117	24.195280	81.616212	21.833149	127.644641
	8.791232	23.717420	78.456142	22.151823	124.325386
	8.988257	24.195280	75.454076	19.443086	119.092442
	8.963629	24.832426	77.982132	24.541886	127.356444
	9.136026	21.168837	76.876107	20.717786	118.762730
	8.939001	22.124555	74.980065	20.558449	117.663069
	9.086770	20.850264	75.296072	18.327724	114.474059
	9.185282	23.876707	78.772149	20.080436	122.729292
	9.357679	19.257399	75.454076	19.283748	113.995223
	9.111398	26.584578	77.034110	21.992486	125.611174
	9.136026	21.646696	76.718104	23.904536	122.269336
	8.914373	22.443129	77.508121	21.833149	121.784398
	9.185282	22.443129	76.244093	21.992486	120.679707
	9.111398	23.080275	77.508121	21.036461	121.624857
	9.037514	24.035993	79.878174	23.745199	127.659366
	9.160654	27.540297	79.246160	23.267186	130.053642
	9.234539	24.673140	80.826194	23.426524	128.925858
	9.136026	21.965269	77.508121	21.355136	120.828526
	9.012885	24.354567	78.298139	21.514474	124.167179
	8.939001	24.354567	78.456142	22.948511	125.759220
	8.668092	21.328123	76.402096	19.761761	117.491981
	9.357679	23.398847	74.664058	22.311161	120.374067
	9.111398	26.425291	78.614146	22.151823	127.191260
	9.209910	21.487409	77.034110	21.036461	119.557981
	9.012885	23.558134	78.140135	21.992486	123.690755
	9.283795	22.443129	78.456142	22.151823	123.051094
	9.086770	24.354567	78.456142	22.470499	125.281207
	9.259167	21.009550	75.454076	20.239773	116.703399
	8.988257	25.469572	77.034110	21.992486	124.496168
	8.939001	21.646696	77.666125	21.036461	120.349282
	8.840489	23.558134	79.246160	22.948511	125.752804
	9.111398	23.398847	78.772149	21.833149	124.004145
	9.037514	22.761702	80.194181	24.382548	127.338431
	9.185282	26.106718	79.720170	23.585861	129.412749
	8.889745	22.920988	77.824128	20.877123	121.622239
	9.062142	25.947432	78.298139	23.107848	127.353419
	8.963629	22.602415	78.140135	21.673811	122.416361
	9.037514	22.602415	76.560100	22.151823	121.314339
	8.717348	23.558134	78.930153	21.514474	124.002760
	8.471067	24.354567	80.194181	24.541886	129.090633
	8.791232	21.965269	77.350118	21.195799	120.511185
	8.692720	24.832426	76.718104	21.992486	123.543016
	9.037514	21.328123	75.296072	19.283748	115.907944
	8.692720	22.124555	77.508121	19.921099	119.553775
	9.062142	20.531690	73.874041	19.921099	114.326830
	9.062142	23.717420	78.298139	22.151823	124.167383
	8.963629	22.602415	76.244093	22.311161	121.157669
	8.865117	25.469572	79.246160	22.789174	127.504905
	8.988257	23.398847	78.614146	21.195799	123.208792
	8.963629	21.168837	77.034110	19.921099	118.124045
	9.111398	23.239561	80.194181	24.541886	127.975628
	8.914373	24.513853	78.772149	23.426524	126.712525
	9.062142	22.920988	78.140135	22.151823	123.212947
	8.446438	24.354567	77.192114	21.992486	123.539167
	8.717348	25.788145	78.298139	21.514474	125.600757
	8.618835	22.602415	76.244093	21.992486	120.838994
	8.569579	20.690977	76.560100	20.239773	117.490851
	8.766604	21.009550	76.560100	20.399111	117.968761
	8.471067	23.717420	78.456142	22.151823	124.325386
	8.865117	21.009550	75.770083	20.877123	117.656756
	8.840489	25.310286	77.824128	21.514474	124.648887
	9.086770	23.239561	76.560100	22.151823	121.951484
	8.889745	22.124555	77.034110	21.992486	121.151152
	8.963629	20.690977	76.086090	20.239773	117.016840
	8.988257	22.920988	80.668191	22.311161	125.900340
	9.062142	20.531690	76.244093	18.965074	115.740857
	8.815860	22.283842	77.666125	21.355136	121.305103
	9.086770	22.602415	74.822062	18.168386	115.592862
	8.618835	22.124555	76.718104	23.745199	122.587858
	8.815860	21.965269	77.508121	22.311161	121.784551
	8.495695	24.832426	80.194181	23.904536	128.931142
	8.717348	24.832426	81.458208	24.063874	130.354508
	8.717348	23.239561	78.456142	21.514474	123.210176
	8.446438	22.920988	79.878174	23.107848	125.907010
	8.791232	23.558134	76.560100	20.080436	120.198670
	8.692720	21.965269	77.508121	23.107848	122.581238
	8.766604	21.487409	75.928086	20.558449	117.973944
	8.495695	23.239561	77.824128	21.833149	122.896838
	8.766604	20.372404	74.032044	18.327724	112.732172
	8.914373	24.354567	78.614146	25.816586	128.785298
	9.012885	22.283842	77.666125	19.602424	119.552390
	8.840489	21.328123	77.192114	21.514474	120.034711
	9.136026	20.531690	78.298139	19.921099	118.750928
	8.939001	24.035993	78.456142	22.151823	124.643959
	9.308423	23.558134	78.456142	23.107848	125.122124
	8.914373	21.965269	76.244093	20.717786	118.927148
	9.086770	22.602415	75.928086	21.195799	119.726300
	8.569579	24.513853	77.824128	22.470499	124.808480
	9.012885	20.850264	78.614146	21.514474	120.978882
	8.840489	24.673140	81.142202	22.311161	128.126502
	8.988257	23.558134	78.930153	23.585861	126.074148
	8.865117	23.398847	76.244093	20.558449	120.201389
	8.643463	22.602415	77.350118	21.833149	121.785681
	8.618835	24.673140	77.666125	22.948511	125.287775
	8.594207	22.283842	75.770083	21.195799	119.249723
	8.865117	22.602415	78.298139	22.629836	123.530389
	8.717348	23.398847	80.194181	21.514474	125.107502
	8.939001	20.372404	75.928086	21.673811	117.974301
	8.668092	24.195280	79.720170	23.267186	127.182636
	9.086770	20.053831	74.190048	18.168386	112.412265
	8.840489	25.310286	77.508121	22.629836	125.448243
	8.988257	20.372404	76.244093	19.761761	116.378258
	8.889745	23.876707	78.456142	22.948511	125.281360
	9.259167	22.920988	80.036177	21.195799	124.152963
	8.791232	24.673140	79.404163	25.975924	130.053226
	9.086770	22.283842	81.458208	22.311161	126.053212
	8.692720	25.788145	78.614146	22.470499	126.872789
	8.766604	21.487409	77.350118	21.195799	120.033326
	8.865117	22.283842	77.034110	22.789174	122.107126
	8.791232	23.558134	78.930153	22.789174	125.277460
	8.865117	24.195280	77.824128	22.470499	124.489907
	8.569579	22.443129	78.614146	22.470499	123.527773
	8.889745	24.354567	78.772149	19.602424	122.729139
	8.766604	21.487409	76.244093	20.239773	117.971276
	9.086770	22.602415	80.668191	21.514474	124.785080
	8.988257	23.558134	79.088156	25.338573	127.984864
	8.939001	21.009550	75.770083	20.080436	116.860069
	8.815860	22.920988	76.876107	22.151823	121.948919
	9.062142	22.602415	75.612079	19.283748	117.498243
	8.865117	22.761702	75.296072	21.673811	119.731585
	9.111398	19.575972	76.086090	20.399111	116.061172
	8.668092	22.761702	79.562167	21.673811	123.997679
	8.988257	22.443129	77.666125	23.267186	123.376439
	8.766604	22.761702	77.192114	21.355136	121.308952
	8.963629	20.372404	76.244093	20.877123	117.493620
	8.766604	25.310286	78.140135	20.717786	124.168207
	8.692720	25.788145	75.612079	22.629836	124.030060
	8.840489	21.328123	77.192114	21.355136	119.875373
	8.717348	22.283842	78.772149	22.151823	123.207815
	8.914373	24.354567	79.088156	23.585861	127.028584
	8.471067	23.398847	78.772149	21.514474	123.685470
	9.086770	21.965269	77.508121	21.514474	120.987864
	8.889745	26.743864	78.140135	22.151823	127.035822
	9.111398	18.938826	74.506055	21.036461	114.481341
	8.791232	26.425291	78.930153	23.267186	128.622630
	9.012885	21.487409	77.034110	21.195799	119.717319
	8.815860	23.717420	78.614146	21.355136	123.686702
	8.865117	19.257399	77.982132	19.443086	116.682616
	8.914373	25.947432	78.614146	22.470499	127.032076
	9.012885	22.602415	79.562167	22.629836	124.794417
	8.471067	23.558134	78.614146	23.267186	125.439466
	8.889745	22.602415	77.034110	21.355136	120.991662
	8.791232	24.035993	75.770083	20.399111	120.205187
	8.692720	23.398847	78.772149	22.151823	124.322820
	9.406936	23.876707	76.402096	22.151823	122.430627
	8.569579	23.717420	78.140135	21.992486	123.850042
	8.988257	21.009550	80.510188	21.673811	123.193549
	8.618835	23.398847	78.298139	20.877123	122.574110
	9.062142	21.009550	76.718104	19.443086	117.170740
	8.914373	22.761702	77.666125	21.992486	122.420312
	8.889745	20.213117	76.876107	20.239773	117.328998
	8.815860	26.106718	78.140135	24.860561	129.107414
	8.766604	22.124555	78.140135	21.992486	122.257176
	8.766604	23.398847	80.826194	23.107848	127.332891
	8.840489	21.646696	77.508121	20.558449	119.713266
	9.259167	21.168837	77.666125	20.877123	119.712085
	8.988257	23.876707	79.404163	23.426524	126.707393
	8.766604	23.717420	77.508121	21.195799	122.421340
	8.914373	24.354567	76.560100	22.948511	123.863178
	8.840489	22.283842	78.456142	21.992486	122.732470
	8.692720	22.283842	77.824128	21.992486	122.100456
	8.889745	23.558134	78.614146	21.195799	123.368078
	8.741976	23.080275	79.404163	22.311161	124.795598
	8.791232	21.805983	77.508121	21.514474	120.828577
	8.692720	25.469572	77.824128	22.789174	126.082874
	8.914373	22.283842	76.718104	20.399111	119.401057
	9.111398	22.602415	78.930153	22.151823	123.684391
	9.185282	22.920988	76.402096	21.992486	121.315570
	8.988257	24.673140	79.562167	23.107848	127.343155
	8.815860	21.009550	76.402096	21.355136	118.766783
	8.569579	25.310286	77.508121	20.877123	123.695530
	8.939001	17.345961	73.558034	16.256336	107.160330
	9.012885	19.894544	76.244093	18.646399	114.785036
	9.062142	19.735258	74.822062	21.833149	116.390468
	8.889745	24.195280	78.930153	22.948511	126.073943
	8.988257	21.487409	77.508121	21.355136	120.350667
	8.643463	22.920988	76.086090	20.877123	119.884201
	9.308423	22.920988	77.350118	20.399111	120.670217
	8.717348	23.080275	79.878174	22.789174	125.747622
	8.914373	22.602415	78.930153	22.311161	123.843728
	8.791232	23.558134	78.772149	23.267186	125.597469
	8.815860	24.832426	79.720170	23.904536	128.457132
	8.766604	23.239561	78.456142	22.470499	124.166201
	8.963629	25.788145	77.824128	21.036461	124.648734
	8.963629	24.991712	79.246160	21.355136	125.593008
	8.914373	22.124555	80.510188	22.151823	124.786567
	8.741976	21.805983	77.666125	20.399111	119.871218
	8.815860	23.398847	79.562167	24.382548	127.343563
	8.914373	22.124555	77.192114	21.195799	120.512468
	8.668092	21.487409	77.192114	21.673811	120.353335
	8.963629	22.920988	74.506055	19.443086	116.870128
	8.914373	24.832426	79.562167	23.904536	128.299128
	9.062142	19.575972	74.980065	19.602424	114.158460
	8.840489	23.717420	78.772149	21.992486	124.482056
	9.086770	21.646696	77.982132	20.558449	120.187276
	8.668092	24.991712	80.036177	22.311161	127.339050
	9.160654	24.195280	76.086090	21.355136	121.636506
	8.914373	24.513853	79.246160	22.789174	126.549186
	8.766604	20.372404	77.192114	23.745199	121.309717
	8.766604	23.876707	76.876107	22.311161	123.063975
	9.037514	22.761702	78.456142	22.311161	123.529004
	8.766604	22.920988	77.192114	21.514474	121.627576
	8.939001	24.354567	79.246160	24.223211	127.823937
	8.741976	24.195280	78.614146	21.195799	124.005224
	8.544951	23.717420	80.036177	23.904536	127.658133
	8.741976	20.531690	75.138069	19.602424	115.272182
	8.594207	23.876707	78.298139	20.877123	123.051969
	8.791232	24.673140	79.562167	23.904536	128.139842
	8.914373	24.513853	78.614146	23.426524	126.554522
	9.062142	22.920988	75.928086	22.470499	121.319573
	8.939001	23.239561	78.140135	22.311161	123.690857
	8.988257	19.735258	76.876107	20.399111	117.010476
	9.037514	24.991712	80.984198	22.948511	128.924421
	8.963629	20.372404	75.138069	19.283748	114.794221
	8.766604	24.354567	79.246160	23.267186	126.867912
	9.012885	22.283842	76.402096	20.717786	119.403724
	8.791232	25.469572	78.140135	22.948511	126.558218
	8.840489	21.168837	79.088156	21.355136	121.612129
	8.643463	21.009550	77.350118	20.877123	119.236791
	9.062142	22.283842	80.984198	20.558449	123.826489
	8.717348	23.080275	78.614146	20.717786	122.412206
	8.741976	23.558134	78.772149	22.948511	125.278794
	8.668092	22.920988	74.822062	19.443086	117.186136
	8.840489	24.195280	79.088156	23.426524	126.709960
	8.569579	21.009550	76.086090	21.355136	118.450776
	8.741976	21.646696	77.508121	21.195799	120.350616
	8.865117	23.080275	79.878174	21.195799	124.154247
	8.766604	23.080275	78.930153	23.745199	125.755626
	8.766604	21.328123	77.824128	19.124411	118.276662
	8.668092	25.310286	78.456142	22.151823	125.918251
	8.939001	20.531690	77.034110	19.921099	117.486899
	8.865117	22.920988	77.824128	21.673811	122.418927
	9.136026	21.168837	76.402096	20.239773	117.810706
	8.840489	23.876707	77.034110	21.992486	122.903303
	9.062142	20.850264	77.192114	20.239773	118.282151
	8.766604	26.584578	81.300205	22.629836	130.514619
	9.160654	21.328123	78.772149	22.151823	122.252095
	8.840489	23.239561	80.352184	21.195799	124.787543
	8.939001	22.283842	78.614146	23.585861	124.483848
	8.692720	23.080275	77.824128	21.673811	122.578214
	8.815860	22.124555	77.192114	22.151823	121.468493
	8.840489	25.150999	78.772149	21.036461	124.959609
	8.815860	24.673140	77.982132	20.877123	123.532395
	8.668092	22.283842	78.772149	21.992486	123.048477
	8.840489	21.646696	78.772149	20.877123	121.295969
	8.791232	23.239561	78.614146	25.019899	126.873605
	8.643463	22.283842	76.718104	21.195799	120.197744
	8.717348	22.602415	77.508121	22.151823	122.262360
	8.717348	26.743864	79.246160	21.992486	127.982510
	8.939001	21.328123	77.508121	20.877123	119.713368
	8.594207	21.487409	78.298139	21.833149	121.618696
	8.939001	22.283842	81.458208	21.195799	124.937849
	8.717348	22.602415	78.456142	22.789174	123.847731
	8.618835	18.460966	74.348051	17.690373	110.499391
	8.865117	25.628858	80.352184	23.904536	129.885579
	9.209910	23.558134	77.192114	19.761761	120.512009
	9.012885	20.372404	75.928086	22.311161	118.611651
	8.865117	21.009550	76.876107	20.877123	118.762781
	8.569579	24.195280	79.720170	22.789174	126.704624
	8.988257	21.487409	77.508121	20.239773	119.235304
	8.963629	23.239561	79.562167	20.717786	123.519514
	9.037514	22.761702	77.192114	20.239773	120.193589
	8.865117	21.646696	78.140135	21.195799	120.982630
	8.963629	20.372404	76.402096	20.399111	117.173612
	8.668092	25.469572	79.088156	23.267186	127.824914
	9.086770	19.575972	74.822062	19.124411	113.522444
	8.914373	21.646696	77.982132	20.239773	119.868601
	9.111398	24.354567	79.404163	24.701224	128.459953
	8.668092	25.310286	81.142202	24.541886	130.994373
	8.815860	22.443129	81.932219	22.789174	127.164521
	8.741976	22.602415	78.456142	21.355136	122.413693
	8.791232	22.124555	77.666125	21.036461	120.827141
	8.569579	21.168837	75.138069	19.921099	116.228003
	8.815860	22.602415	78.140135	20.877123	121.619673
	8.717348	25.628858	77.666125	23.426524	126.721507
	8.766604	22.283842	79.404163	22.311161	123.999166
	8.717348	23.717420	80.668191	22.789174	127.174785
	8.668092	23.398847	79.088156	21.673811	124.160815
	8.963629	23.558134	78.140135	20.399111	122.097380
	8.815860	21.487409	76.876107	21.195799	119.559315
	8.963629	23.080275	77.508121	19.761761	120.350156
	8.717348	23.876707	76.244093	23.745199	123.865998
	8.889745	21.805983	79.088156	22.151823	123.045962
	8.914373	24.354567	82.248226	23.426524	130.029316
	9.111398	21.328123	76.718104	19.602424	117.648650
	8.717348	23.717420	79.878174	23.585861	127.181455
	8.963629	21.328123	77.192114	20.558449	119.078686
	8.914373	28.336729	81.458208	25.338573	135.133511
	8.865117	20.053831	75.928086	19.283748	115.265666
	8.717348	23.239561	78.614146	19.761761	121.615467
	9.012885	21.009550	75.928086	20.558449	117.496085
	8.815860	22.283842	77.982132	20.717786	120.983760
	8.668092	20.531690	78.772149	22.470499	121.774338
	8.692720	26.106718	79.246160	22.311161	127.664039
	8.865117	21.646696	78.930153	21.195799	121.772647
	8.791232	21.646696	77.508121	20.399111	119.553928
	8.766604	22.602415	78.298139	23.585861	124.486414
	8.692720	23.558134	78.140135	21.355136	123.053405
	8.692720	22.124555	78.298139	21.355136	121.777830
	8.865117	26.584578	78.772149	22.311161	127.667888
	8.791232	23.080275	78.298139	19.921099	121.299512
	8.791232	22.124555	82.090223	21.992486	126.207264
	8.643463	23.080275	79.246160	21.195799	123.522233
	8.668092	22.283842	77.508121	23.745199	123.537162
	8.766604	23.876707	78.140135	22.151823	124.168666
	9.111398	21.805983	78.772149	21.673811	122.251942
	8.766604	24.354567	77.034110	20.399111	121.787788
	9.086770	21.965269	77.192114	19.443086	118.600469
	8.815860	22.761702	80.352184	21.992486	125.106372
	9.234539	19.098112	75.138069	17.371699	111.607879
	8.939001	24.035993	78.456142	24.063874	126.556009
	8.692720	22.443129	78.298139	21.673811	122.415078
	8.815860	23.558134	78.930153	21.833149	124.321435
	8.815860	24.832426	78.140135	21.833149	124.805710
	8.963629	23.717420	79.878174	23.107848	126.703443
	9.111398	21.805983	76.876107	21.673811	120.355901
	8.692720	23.558134	78.772149	21.673811	124.004094
	9.037514	22.920988	79.088156	21.195799	123.204943
	9.111398	22.602415	79.088156	20.877123	122.567695
	9.012885	24.354567	77.034110	20.717786	122.106463
	8.914373	23.876707	79.720170	22.311161	125.908038
	8.668092	23.239561	78.930153	22.629836	124.799549
	8.741976	22.920988	76.718104	20.877123	120.516215
	8.668092	23.398847	78.930153	21.036461	123.365461
	9.283795	23.080275	78.456142	19.921099	121.457515
	8.791232	26.743864	78.456142	21.992486	127.192492
	8.717348	22.761702	79.878174	21.195799	123.835674
	8.766604	23.717420	79.878174	22.151823	125.747418
	8.963629	20.372404	75.296072	18.646399	114.314875
	8.865117	24.673140	78.614146	21.355136	124.642421
	9.012885	20.690977	76.244093	18.805736	115.740806
	8.791232	25.310286	79.720170	22.311161	127.341617
	9.062142	25.788145	79.562167	23.585861	128.936172
	8.791232	24.673140	82.248226	22.311161	129.232527
	8.963629	21.805983	78.614146	20.717786	121.137914
	8.988257	25.469572	80.352184	22.311161	128.132917
	8.766604	24.195280	79.404163	20.080436	123.679879
	8.618835	25.150999	80.036177	22.151823	127.338999
	8.569579	26.106718	77.824128	21.195799	125.126644
	8.520323	27.540297	80.984198	26.135261	134.659756
	8.274041	28.336729	84.460275	24.860561	137.657565
	8.446438	27.381010	81.300205	21.992486	130.673701
	8.372554	30.566740	82.090223	22.311161	134.968123
	8.224785	34.389616	84.776282	25.338573	144.504471
	7.830735	37.575346	87.462342	27.250623	152.288311
	7.855363	43.628233	87.936352	27.569299	159.133884
	7.584454	45.539671	91.886440	30.278036	167.704146
	7.141147	44.743238	89.674391	26.453936	160.871565
	7.141147	51.433271	95.204513	30.915386	177.553171
	7.042635	51.751844	95.678523	28.206648	175.637016
	6.328419	54.778288	96.784548	33.624124	185.186960
	6.599328	57.167586	97.100555	29.959361	184.227502
