LabVIEW Measurement	
Writer_Version	2
Reader_Version	2
Separator	Tab
Decimal_Separator	.
Multi_Headings	No
X_Columns	No
Time_Pref	Absolute
Operator	lvuser
Date	2021/05/07
Time	13:13:34.1663923119999999999
***End_of_Header***	
	
Channels	5					
Samples	2000	2000	2000	2000	2000	
Date	2021/05/07	2021/05/07	2021/05/07	2021/05/07	2021/05/07	
Time	13:13:34.1663923620585883855	13:13:34.1663923119999999999	13:13:34.1663923119999999999	13:13:34.1663923119999999999	13:13:34.1663923119999999999	
Y_Unit_Label	Volts	Volts	Volts	Volts	Volts	
X_Dimension	Time	Time	Time	Time	Time	
X0	0.0000000000000000E+0	0.0000000000000000E+0	0.0000000000000000E+0	0.0000000000000000E+0	0.0000000000000000E+0	
Delta_X	0.001000	0.001000	0.001000	0.001000	0.001000	
***End_of_Header***						
X_Value	cisnienieKomoraGorna	sila1	sila2	sila3	sila1 1	Comment
	2.535687	0.620878	45.275407	-5.732239	40.164046
	2.018496	1.735883	47.961467	-8.918989	40.778361
	1.969240	-3.998431	44.485390	-10.990377	29.496583
	1.599818	-0.175555	44.643393	-9.397001	35.070837
	2.043124	-2.246279	42.589348	-10.990377	29.352692
	1.575190	-3.361285	44.011379	-10.671702	29.978393
	1.969240	0.620878	51.911554	-6.688264	45.844168
	1.772215	-2.564852	44.959400	-10.512364	31.882184
	1.870727	1.895170	46.539435	-7.962964	40.471641
	1.772215	0.143018	47.329453	-6.528927	40.943545
	1.796843	-1.131274	45.591414	-9.875014	34.585127
	2.067752	-0.175555	46.065425	-7.484952	38.404919
	1.895355	0.620878	47.961467	-7.644289	40.938056
	1.796843	-1.290560	47.487456	-9.237664	36.959232
	1.575190	-0.494128	46.855442	-8.600314	37.761001
	1.772215	-1.927706	44.485390	-9.556339	33.001345
	1.821471	0.461591	45.433411	-8.440977	37.454026
	2.092380	-2.086993	43.537369	-10.353027	31.097350
	1.919983	-0.016268	46.065425	-8.440977	37.608180
	1.870727	-2.883425	44.643393	-10.512364	31.247604
	2.117009	-1.290560	46.855442	-9.556339	36.008543
	1.969240	-2.086993	45.591414	-9.715677	33.788745
	2.264777	-0.812701	44.643393	-9.556339	34.274354
	1.969240	-0.812701	45.275407	-10.671702	33.791005
	1.944612	-0.334841	45.749418	-5.094889	40.319688
	2.043124	-0.971987	46.223428	-8.759652	36.491790
	1.550562	-0.016268	47.171449	-8.281639	38.873542
	2.190893	0.939451	47.803463	-8.122302	40.620613
	1.452049	-1.768420	46.855442	-9.078327	36.008696
	1.747587	-0.812701	48.593481	-8.759652	39.021129
	1.649074	-1.131274	46.223428	-8.600314	36.491841
	1.698330	-0.653414	45.117404	-7.803627	36.660363
	1.772215	-0.334841	46.381432	-9.237664	36.808927
	1.698330	0.461591	47.329453	-7.166277	40.624768
	1.747587	-1.609133	44.801397	-9.875014	33.317250
	1.649074	-0.812701	46.381432	-8.759652	36.809080
	2.043124	-1.768420	44.801397	-10.831039	32.201938
	1.919983	-0.653414	47.329453	-7.006939	39.669100
	1.969240	-3.520571	44.485390	-12.902427	28.062392
	1.919983	-1.609133	45.907421	-9.078327	35.219962
	2.289405	-1.609133	44.327386	-11.149714	31.568539
	2.043124	-1.609133	46.065425	-9.237664	35.218628
	1.993868	-2.724139	43.853376	-11.149714	29.979523
	1.722958	0.143018	47.013446	-6.688264	40.468200
	2.043124	2.850889	47.013446	-7.962964	41.901371
	1.772215	-1.449847	46.539435	-8.600314	36.489275
	2.043124	-1.927706	46.065425	-8.600314	35.537405
	1.673702	-0.175555	47.171449	-7.962964	39.032931
	1.895355	-0.016268	47.171449	-9.078327	38.076855
	1.673702	-1.768420	47.329453	-9.237664	36.323369
	1.919983	-1.290560	46.539435	-5.572902	39.675974
	1.673702	-2.246279	43.063358	-10.831039	29.986040
	1.673702	0.461591	45.907421	-9.237664	37.131349
	1.772215	-0.971987	45.433411	-8.281639	36.179785
	1.599818	1.895170	47.803463	-6.210252	43.488382
	1.895355	0.302305	47.329453	-8.440977	39.190781
	1.501305	-2.246279	46.065425	-8.759652	35.059494
	1.919983	0.461591	47.487456	-8.600314	39.348734
	1.722958	-1.290560	49.383498	-9.237664	38.855274
	1.870727	-3.520571	43.853376	-10.990377	29.342428
	1.895355	-1.290560	46.855442	-9.078327	36.486556
	2.067752	-2.724139	43.853376	-11.946402	29.182836
	1.870727	-0.494128	45.591414	-8.600314	36.496973
	2.018496	-2.086993	45.433411	-8.440977	34.905442
	1.846099	-0.971987	45.591414	-9.556339	35.063088
	2.117009	0.143018	44.169383	-10.034352	34.278050
	2.141637	-2.564852	45.117404	-10.193689	32.358863
	1.895355	-1.609133	47.013446	-9.556339	35.847974
	1.698330	1.417310	47.961467	-7.962964	41.415813
	2.215521	-0.812701	48.435477	-7.006939	40.615838
	1.821471	-1.290560	45.907421	-9.556339	35.060522
	1.796843	-0.494128	48.593481	-8.440977	39.658377
	1.722958	0.302305	47.013446	-8.440977	38.874774
	1.698330	-2.883425	43.853376	-10.512364	30.457587
	1.772215	1.258024	45.749418	-10.034352	36.973090
	1.624446	-1.609133	44.327386	-7.644289	35.073964
	1.944612	-0.175555	46.381432	-9.875014	36.330863
	2.043124	-1.131274	45.749418	-9.397001	35.221143
	1.993868	-0.334841	45.907421	-9.715677	35.856904
	1.969240	-0.971987	47.171449	-8.440977	37.758486
	2.215521	-3.042711	47.171449	-11.946402	32.182336
	1.993868	-0.971987	45.907421	-9.078327	35.857108
	2.240149	-1.927706	42.905355	-10.831039	30.146610
	1.919983	-0.334841	47.329453	-9.237664	37.756948
	1.747587	-2.405565	44.643393	-9.237664	33.000164
	1.624446	-2.405565	44.169383	-10.831039	30.932778
	2.117009	0.620878	45.117404	-10.193689	35.544593
	1.550562	-2.246279	44.327386	-11.309052	30.772056
	1.624446	-0.494128	47.487456	-5.254227	41.739102
	1.698330	-0.175555	48.277474	-9.237664	38.864255
	1.821471	0.143018	47.171449	-8.600314	38.714154
	1.821471	-1.131274	45.591414	-8.918989	35.541152
	1.575190	0.939451	48.751484	-7.006939	42.683996
	1.722958	-1.609133	44.011379	-10.193689	32.208557
	1.550562	-0.334841	46.855442	-7.166277	39.354325
	2.166265	0.302305	45.591414	-10.353027	35.540693
	1.624446	-1.290560	46.223428	-8.759652	36.173217
	2.166265	-2.086993	45.117404	-9.715677	33.314735
	1.993868	-1.768420	44.327386	-9.556339	33.002628
	2.043124	-0.812701	44.643393	-11.946402	31.884291
	1.993868	-2.246279	47.171449	-8.281639	36.643531
	2.141637	-3.042711	44.959400	-10.353027	31.563662
	1.821471	-0.016268	49.383498	-8.600314	40.766916
	1.969240	-3.201998	45.117404	-10.193689	31.721717
	1.698330	-1.131274	46.855442	-8.600314	37.123855
	2.018496	-1.449847	47.329453	-8.918989	36.960617
	1.722958	-1.290560	44.643393	-8.281639	35.071194
	1.895355	-1.927706	46.381432	-7.803627	36.650099
	1.673702	0.939451	46.065425	-8.759652	38.245224
	1.722958	-1.768420	45.275407	-8.918989	34.587999
	1.796843	-1.609133	46.223428	-9.715677	34.898619
	1.575190	-1.927706	47.329453	-9.556339	35.845408
	2.018496	-2.086993	45.591414	-10.831039	32.673383
	1.919983	-2.246279	46.065425	-7.962964	35.856182
	2.240149	-3.679858	44.485390	-12.265077	28.540456
	1.624446	-2.086993	44.643393	-9.397001	33.159399
	2.092380	-3.201998	42.115337	-13.539777	25.373563
	2.043124	-1.449847	45.907421	-8.918989	35.538586
	2.338662	-3.679858	44.011379	-11.787064	28.544458
	1.624446	-0.016268	46.855442	-7.803627	39.035548
	1.821471	-1.131274	46.065425	-9.556339	35.377812
	1.624446	-1.927706	46.697439	-9.715677	35.054056
	1.870727	-2.405565	47.329453	-9.397001	35.526886
	1.821471	-0.812701	46.381432	-8.440977	37.127755
	1.796843	-0.971987	44.485390	-10.034352	33.479051
	1.550562	-0.971987	46.697439	-9.715677	36.009775
	1.747587	-2.086993	44.959400	-5.732239	37.140169
	1.698330	0.302305	47.329453	-8.281639	39.350119
	1.821471	0.939451	48.435477	-6.050914	43.324014
	1.821471	-0.494128	44.959400	-9.875014	34.590259
	1.796843	-2.883425	45.749418	-10.193689	32.672304
	1.821471	-1.131274	45.275407	-9.875014	34.269120
	1.821471	-1.290560	46.855442	-7.325614	38.239268
	1.796843	1.735883	48.119470	-9.715677	40.139677
	1.673702	-2.086993	46.697439	-9.078327	35.532120
	1.846099	-1.768420	46.539435	-9.397001	35.374014
	1.550562	-0.334841	47.013446	-8.759652	37.918953
	1.821471	0.461591	45.275407	-10.193689	35.543310
	1.402793	0.620878	48.593481	-4.776214	44.438144
	1.969240	-1.290560	45.433411	-9.397001	34.745849
	1.796843	0.302305	46.697439	-7.644289	39.355455
	2.067752	-1.768420	44.011379	-10.671702	31.571258
	1.993868	-1.768420	46.855442	-9.715677	35.371346
	2.092380	-2.564852	44.801397	-10.990377	31.246168
	1.846099	0.620878	48.435477	-8.918989	40.137366
	2.190893	-4.954149	41.957334	-9.875014	27.128170
	2.215521	0.620878	46.223428	-8.122302	38.722005
	2.486431	-3.839144	43.537369	-10.990377	28.707848
	2.412546	1.735883	46.381432	-6.688264	41.429051
	2.855852	-2.246279	45.433411	-9.078327	34.108805
	3.102134	3.488035	47.487456	-7.803627	43.171865
	3.890234	-1.131274	47.329453	-7.325614	38.872565
	4.826103	3.010175	49.067491	-7.484952	44.592715
	6.303791	2.373029	52.227561	-5.572902	49.027689
	7.313544	5.558759	49.383498	-5.413564	49.528694
	9.382307	3.965895	53.965600	-2.704827	55.226668
	10.589086	5.877333	51.911554	-3.501514	54.287373
	12.140658	9.381636	55.071624	4.146686	68.599946
	13.125784	11.293074	56.809663	3.190661	71.293397
	14.652728	10.178068	55.387631	3.031324	68.597023
	14.972894	14.000944	60.917754	7.014761	81.933459
	15.514713	17.186674	63.129802	9.882836	90.199312
	16.746119	18.938826	65.499855	11.954224	96.392904
	19.307445	24.354567	69.765950	17.212361	111.332877
	22.213565	23.717420	73.558034	17.053024	114.328478
	25.538364	28.496015	76.718104	22.948511	128.162630
	29.774403	31.681745	80.826194	26.294599	138.802538
	33.813418	36.460340	83.196247	29.959361	149.615949
	37.458382	38.212492	87.462342	34.102136	159.776970
	40.832437	43.150374	92.992464	38.722924	174.865761
	44.428146	48.247541	96.784548	46.211786	191.243876
	47.211126	53.185423	101.050643	46.211786	200.447852
	48.565674	53.663283	107.054776	52.744624	213.462682
	52.850971	60.831175	115.112954	60.711499	236.655628
	57.948997	66.565489	121.117087	66.925661	254.608237
	62.406692	73.574095	128.543252	71.705786	273.823133
	68.021910	71.184798	128.859259	74.892536	274.936592
	72.553490	80.264128	137.865458	85.090136	303.219722
	75.853662	80.104842	139.445493	85.090136	304.640471
	78.365734	89.662031	147.187665	94.650386	331.500082
	80.606896	91.732756	154.297822	101.183223	347.213802
	81.961445	100.334227	163.778032	110.584136	374.696395
	83.266737	103.360670	168.360134	115.045586	386.766390
	83.636159	112.280715	178.788365	129.385961	420.455040
	86.025091	119.130034	187.636561	134.484761	441.251356
	88.266253	126.616500	196.958767	145.479049	469.054315
	91.591055	135.855117	208.019012	156.632674	500.506802
	94.029243	145.571593	217.973233	167.308286	530.853112
	97.181647	156.721648	228.559467	178.939924	564.221039
	98.905619	162.455962	238.039677	189.774874	590.270512
	100.284796	173.446731	248.309905	199.016449	620.773084
	100.432565	185.233932	260.950185	213.834836	660.018952
	99.940002	196.065414	271.062409	225.466474	692.594296
	98.339171	202.596160	280.068608	234.867386	717.532154
	98.092889	211.675490	291.918871	244.586974	748.181335
	95.753214	219.161956	300.609063	254.943911	774.714930
	93.265769	228.082000	309.773266	263.388799	801.244065
	90.408903	232.860595	316.409413	268.487599	817.757607
	87.478152	233.816314	317.673441	271.196336	822.686091
	87.502780	239.232055	322.097539	276.454474	837.784067
	83.266737	240.347061	326.995648	278.047849	845.390557
	81.370369	240.824920	326.363634	277.410499	844.599052
	79.006066	241.939926	329.523704	282.031286	853.494915
	76.296969	239.232055	327.311655	277.251161	843.794871
	73.243078	237.957763	329.839711	275.817123	843.614597
	70.287700	235.727752	324.151585	272.949049	832.828385
	69.844393	231.427017	321.307522	268.806274	821.540812
	66.248683	226.648422	315.461392	262.273436	804.383250
	61.421566	223.940551	310.721287	260.042711	794.704549
	57.554947	219.639815	305.507172	255.421924	780.568911
	52.875599	213.905502	300.925070	247.933061	762.763633
	49.058237	207.852615	292.866892	241.081549	741.801055
	45.019222	205.144744	289.706822	237.098111	731.949677
	41.571282	200.047576	282.438661	228.812561	711.298798
	38.049458	191.923965	275.644510	221.961049	689.529523
	35.094081	184.915359	270.272391	215.268874	670.456623
	32.040192	182.685348	262.688223	208.098686	653.472257
	31.793910	177.588179	256.368083	202.521874	636.478136
	28.863162	171.376006	248.783915	196.148374	616.308295
	25.587620	162.455962	237.881674	186.110111	586.447746
	22.533731	156.721648	232.035544	178.302574	567.059766
	19.110420	150.509475	223.187348	174.478474	548.175296
	16.967772	142.863723	214.813163	162.209486	519.886371
	13.864628	137.288695	209.441044	157.270024	503.999762
	11.820493	128.687224	199.328820	146.435074	474.451117
	9.382307	124.545775	193.640694	140.539586	458.726055
	7.830735	117.855742	186.214529	130.341986	434.412257
	6.106766	111.006423	178.630361	126.995899	416.632682
	6.353047	104.634963	172.626228	116.957636	394.218826
	4.530565	98.263503	162.830011	109.150098	370.243612
	4.013375	93.644194	153.981815	101.820574	349.446583
	2.708084	84.724150	147.503672	94.650386	326.878208
	2.338662	77.715544	139.445493	86.364836	303.525873
	1.969240	74.211241	133.125353	80.150674	287.487268
	0.737833	69.432646	128.069241	75.689223	273.191111
	1.107255	62.264753	123.013129	65.969636	251.247519
	1.156511	58.760450	118.115021	63.579574	240.455045
	1.476677	51.911131	110.688856	55.453361	218.053348
	1.599818	48.725401	105.474741	50.832574	205.032715
	1.772215	42.353941	99.312604	43.821724	185.488269
	1.944612	38.849638	96.468541	42.387686	177.705865
	2.190893	34.389616	91.570433	37.607561	163.567610
	1.846099	31.841032	90.148401	34.261474	156.250907
	1.870727	28.814589	85.408296	30.278036	144.500921
	2.264777	24.195280	81.616212	26.453936	132.265428
	1.624446	21.009550	79.562167	21.992486	122.564203
	1.427421	19.098112	77.982132	20.399111	117.479355
	1.525933	18.620252	74.980065	19.124411	112.724728
	1.328908	15.912382	75.612079	18.646399	110.170859
	1.698330	14.000944	72.926020	15.778324	102.705287
	1.476677	11.293074	68.975932	12.591574	92.860579
	2.067752	11.611647	69.607946	12.113561	93.333154
	1.476677	12.567366	68.975932	13.069586	94.612883
	1.944612	6.992338	65.815862	10.520186	83.328386
	1.846099	8.903776	65.341852	8.926811	83.172439
	2.018496	5.558759	63.129802	7.333436	76.021998
	1.747587	7.629484	63.761817	7.174099	78.565399
	1.993868	2.213743	61.075757	2.553311	65.842811
	1.821471	8.107344	63.287806	5.580724	76.975873
	1.969240	3.488035	60.601747	6.377411	70.467192
	1.525933	7.629484	59.337719	2.712649	69.679851
	1.747587	2.532316	55.071624	0.641261	58.245201
	1.575190	4.284467	57.125670	1.119274	62.529411
	1.599818	4.603041	56.019645	1.278611	61.901297
	1.796843	5.718046	55.071624	-0.952114	59.837556
	1.870727	3.169462	54.755617	-0.155427	57.769653
	1.575190	5.718046	56.177649	2.234636	64.130330
	1.698330	2.691602	51.753551	-3.182839	51.262314
	2.018496	5.240187	52.227561	-3.342177	54.125571
	1.698330	3.806608	51.595547	-2.226814	53.175341
	1.722958	2.532316	47.961467	-5.413564	45.080219
	1.624446	3.965895	50.015512	-4.138864	49.842543
	1.870727	5.080900	47.487456	-3.501514	49.066842
	1.452049	3.169462	48.277474	-7.166277	44.280659
	1.575190	2.054456	46.697439	-6.210252	42.541644
	1.452049	2.532316	46.381432	-6.528927	42.384821
	1.378165	2.850889	48.277474	-5.413564	45.714799
	1.476677	4.443754	47.961467	-8.281639	44.123582
	2.117009	-1.131274	43.853376	-7.166277	35.555826
	2.067752	1.735883	46.065425	-8.440977	39.360332
	1.919983	-0.175555	43.063358	-10.034352	32.853452
	1.895355	6.036619	45.749418	-7.166277	44.619760
	1.895355	-1.290560	42.747351	-10.034352	31.422440
	1.698330	1.735883	43.537369	-9.078327	36.194926
	1.969240	0.302305	43.221362	-8.759652	34.764015
	1.649074	2.691602	43.695372	-9.875014	36.511961
	2.067752	-1.609133	40.377299	-12.583752	26.184414
	1.722958	1.098737	43.853376	-8.759652	36.192462
	2.067752	-0.175555	42.115337	-10.353027	31.586756
	1.919983	3.169462	45.907421	-8.281639	40.795244
	2.067752	0.939451	44.485390	-9.875014	35.549827
	1.821471	2.532316	45.117404	-6.210252	41.439468
	2.092380	-2.883425	38.955267	-13.858452	22.213391
	1.698330	0.780165	43.853376	-9.237664	35.395876
	1.870727	0.939451	40.535302	-10.193689	31.281064
	1.722958	2.850889	44.643393	-7.644289	39.849993
	2.141637	-1.290560	41.483323	-12.743089	27.449674
	1.476677	0.620878	43.537369	-8.759652	35.398595
	2.166265	-0.016268	42.589348	-10.831039	31.742041
	1.722958	0.143018	47.645460	-9.078327	38.710152
	2.092380	-0.812701	42.273341	-10.831039	30.629601
	1.870727	2.850889	47.013446	-7.484952	42.379383
	1.993868	2.373029	43.221362	-10.671702	34.922690
	1.944612	1.576597	44.169383	-8.759652	36.986328
	1.870727	-2.564852	40.851309	-10.034352	28.252106
	1.599818	2.691602	44.169383	-8.281639	38.579346
	2.018496	2.532316	43.537369	-9.397001	36.672683
	1.698330	1.417310	44.169383	-9.237664	36.349029
	1.969240	-0.971987	43.221362	-11.309052	30.940323
	1.353536	1.735883	44.485390	-9.556339	36.664934
	2.018496	-1.768420	45.117404	-9.556339	33.792645
	1.722958	4.125181	45.275407	-9.078327	40.322262
	2.067752	-3.839144	42.747351	-13.061764	25.846443
	1.846099	1.098737	44.011379	-10.034352	35.075765
	1.969240	-0.016268	42.431344	-11.149714	31.265362
	2.067752	4.284467	43.695372	-10.831039	37.148801
	2.018496	-3.201998	39.903288	-9.556339	27.144951
	1.993868	1.258024	43.853376	-10.831039	34.280361
	2.018496	-1.290560	42.115337	-12.105739	28.719038
	1.969240	4.603041	45.749418	-8.440977	41.911482
	2.018496	-0.175555	44.643393	-10.193689	34.274150
	1.772215	-0.016268	46.855442	-11.946402	34.892773
	1.919983	-2.405565	41.799330	-12.743089	26.650676
	2.043124	1.576597	43.221362	-10.990377	33.807582
	2.043124	-1.131274	43.853376	-11.627727	31.094376
	1.821471	1.895170	44.327386	-10.034352	36.188205
	2.092380	-0.812701	43.063358	-11.946402	30.304256
	1.821471	1.098737	44.327386	-10.990377	34.435747
	2.067752	-0.334841	41.799330	-13.221101	28.243388
	1.895355	1.098737	46.065425	-8.759652	38.404511
	1.919983	-1.131274	45.433411	-13.380439	30.921698
	1.722958	1.895170	47.645460	-9.397001	40.143628
	2.043124	0.143018	46.381432	-10.671702	35.852749
	1.993868	-1.449847	45.749418	-11.468389	32.831182
	2.018496	-0.016268	46.697439	-11.149714	35.531457
	1.673702	0.939451	47.487456	-7.006939	41.419968
	1.821471	0.143018	44.011379	-12.265077	31.889321
	1.624446	-0.494128	47.803463	-9.237664	38.071672
	1.895355	-3.042711	44.327386	-9.715677	31.568998
	1.772215	1.417310	48.435477	-8.281639	41.571149
	1.969240	-0.812701	47.487456	-10.990377	35.684379
	1.993868	3.169462	52.543568	-5.413564	50.299466
	2.117009	-2.724139	47.645460	-12.105739	32.815582
	1.944612	-0.175555	53.017579	-8.122302	44.719723
	1.919983	-3.520571	48.119470	-9.556339	35.042560
	1.969240	0.939451	50.963533	-8.440977	43.462008
	2.092380	-2.883425	49.541502	-9.875014	36.783063
	1.821471	-1.609133	47.645460	-7.803627	38.232700
	2.018496	-5.909868	45.433411	-11.309052	28.214491
	1.846099	1.258024	49.699505	-7.644289	43.313240
	2.141637	-3.042711	48.435477	-8.281639	37.111127
	1.772215	-1.927706	49.857509	-7.644289	40.285514
	1.895355	-2.883425	50.331519	-8.440977	39.007118
	1.747587	0.620878	50.489523	-8.600314	42.510086
	1.747587	-0.812701	52.859575	-3.182839	48.864036
	1.550562	-1.927706	50.173516	-8.122302	40.123508
	1.895355	-5.113436	45.275407	-10.353027	29.808945
	1.772215	-1.290560	48.119470	-8.600314	38.228596
	1.796843	-4.635576	47.171449	-8.759652	33.776221
	1.501305	-3.839144	47.645460	-9.397001	34.409314
	1.722958	-2.086993	48.751484	-7.166277	39.498215
	1.673702	-1.609133	50.173516	-4.935552	43.628831
	1.919983	-3.998431	47.013446	-8.759652	34.255364
	1.599818	-1.449847	50.963533	-6.210252	43.303435
	1.550562	-3.679858	47.487456	-8.759652	35.047947
	1.525933	-2.724139	48.435477	-7.644289	38.067050
	1.821471	-1.449847	48.435477	-8.122302	38.863329
	1.698330	-4.954149	46.223428	-7.166277	34.103002
	1.525933	-1.290560	49.225495	-7.484952	40.449983
	1.673702	-3.042711	47.171449	-7.803627	36.325111
	1.550562	-0.016268	47.961467	-7.325614	40.619585
	1.772215	-5.750582	45.117404	-10.831039	28.535783
	1.501305	-1.290560	47.645460	-7.644289	38.710611
	1.772215	-3.201998	47.013446	-5.891577	37.919871
	1.870727	-0.334841	49.383498	-7.644289	41.404368
	1.747587	-0.334841	49.699505	-6.369589	42.995075
	1.722958	-2.883425	48.277474	-8.600314	36.793734
	1.624446	-1.449847	48.593481	-7.484952	39.658683
	1.599818	-2.246279	47.487456	-7.644289	37.596888
	1.525933	-4.476290	44.011379	-9.556339	29.978750
	1.624446	-5.113436	43.853376	-11.627727	27.112213
	1.969240	-2.246279	46.539435	-8.281639	36.011517
	1.698330	-0.334841	48.593481	-6.528927	41.729713
	1.821471	-1.449847	48.909488	-8.122302	39.337340
	1.624446	-1.927706	47.171449	-8.281639	36.962104
	1.969240	-1.131274	49.541502	-8.122302	40.287927
	2.018496	-2.724139	46.381432	-6.847602	36.809691
	2.067752	1.258024	45.907421	-8.918989	38.246456
	1.969240	-2.246279	46.539435	-8.440977	35.852180
	2.166265	-0.971987	45.433411	-7.644289	36.817135
	2.486431	-0.812701	47.171449	-7.962964	38.395785
	2.412546	-1.290560	43.853376	-12.105739	30.457077
	2.387918	-3.998431	46.223428	-8.122302	34.102696
	2.289405	-0.494128	47.013446	-8.440977	38.078342
	2.658827	-2.086993	49.225495	-8.918989	38.219513
	2.609571	1.895170	48.751484	-6.210252	44.436403
	2.831224	-0.334841	50.963533	-7.803627	42.825066
	2.560315	-0.494128	47.171449	-8.281639	38.395683
	2.978993	0.939451	46.855442	-5.572902	42.221992
	3.126762	1.895170	49.225495	-7.166277	43.954388
	3.816350	1.895170	46.697439	-6.688264	41.904345
	4.038003	0.620878	48.751484	-5.732239	43.640123
	4.678334	1.417310	48.435477	-5.732239	44.120549
	4.752219	3.488035	49.857509	-5.572902	47.772642
	5.712716	5.240187	50.331519	-2.864164	52.707542
	6.032881	3.010175	50.963533	-3.501514	50.472195
	6.180650	5.080900	52.543568	-2.067477	55.556992
	6.008253	7.629484	54.439610	-0.952114	61.116980
	6.550072	8.425916	52.543568	-1.748802	59.220683
	6.747097	7.151625	52.227561	-2.067477	57.311709
	7.510569	4.443754	50.805530	-3.660852	51.588432
	8.717348	9.859495	53.491589	3.668674	67.019758
	8.618835	9.540922	54.439610	0.163249	64.143781
	9.086770	14.319517	59.969733	5.740061	80.029311
	9.899498	12.248793	59.179715	4.306024	75.734531
	10.342805	15.593809	61.075757	6.218074	82.887640
	10.712227	14.000944	62.971799	4.624699	81.597442
	10.441317	16.390241	61.233761	7.652111	85.276113
	11.204789	15.275236	61.707771	8.130124	85.113131
	11.475699	21.328123	66.763883	11.954224	100.046230
	12.682477	20.690977	66.131869	12.910248	99.733095
	12.805618	24.673140	68.343918	13.706936	106.723994
	14.012396	21.168837	67.711904	12.591574	101.472314
	14.455703	25.310286	69.923953	15.778324	111.012562
	15.391572	25.788145	72.926020	19.283748	117.997913
	15.982647	30.248167	75.138069	17.531036	122.917271
	16.721491	26.584578	74.980065	19.283748	120.848391
	17.386451	30.407453	80.352184	21.833149	132.592786
	17.681988	30.885313	78.456142	22.470499	131.811953
	18.322320	34.867475	82.090223	24.063874	141.021572
	19.381330	34.230329	82.564233	29.481348	146.275911
	19.997033	39.008924	85.566300	30.118699	154.693923
	21.105299	37.256773	86.198314	29.640686	153.095773
	21.918028	41.238935	88.884373	33.624124	163.747432
	22.903153	41.079649	89.200380	32.668099	162.948128
	23.444972	39.486784	89.674391	32.508761	161.669936
	24.134560	41.876081	92.992464	36.651536	171.520082
	25.070429	45.221098	95.994531	36.970211	178.185840
	25.981670	45.061811	97.574566	37.607561	180.243938
	25.858529	45.539671	97.100555	39.838286	182.478512
	26.424976	46.973249	99.154601	42.228349	188.356199
	26.671258	49.521833	101.208646	43.662386	194.392865
	27.681011	50.796125	100.734635	44.618411	196.149172
	27.705640	51.911131	105.000730	50.354561	207.266422
	28.370599	52.866850	105.948751	48.123836	206.939437
	28.887790	52.388990	105.632744	49.079861	207.101596
	29.158700	54.619002	107.212779	51.151249	212.983029
	29.232584	55.256147	111.952884	54.816011	222.025043
	29.552750	57.486158	112.584898	55.294024	225.365080
	29.454237	60.194029	113.532919	60.074149	233.801096
	29.774403	63.061186	116.218979	61.189511	240.469676
	29.626634	62.264753	115.744968	62.464211	240.473933
	29.552750	64.176192	119.063042	64.376261	247.615494
	29.700519	64.654051	119.379049	65.172949	249.206048
	29.602006	65.609770	120.959084	66.925661	253.494515
	29.528122	69.273360	123.329136	69.475061	262.077557
	29.429609	69.751219	125.541185	73.458498	268.750903
	29.454237	70.706938	126.015196	72.502473	269.224607
	29.404981	71.821944	128.859259	74.095849	274.777051
	28.863162	75.485533	129.175266	75.211211	279.872010
	28.542996	72.140517	127.437227	74.573861	274.151605
	28.247459	78.352690	133.757367	80.469349	292.579406
	27.656383	76.600539	130.439294	80.788023	287.827856
	27.459358	80.264128	133.757367	80.628686	294.650181
	26.424976	78.034117	132.967350	81.266036	292.267503
	25.858529	78.830550	134.231378	81.744049	294.805976
	25.168942	80.582701	135.495406	82.700074	298.778180
	24.553238	80.264128	134.073374	81.106699	295.444201
	23.494228	77.396971	132.809346	83.496761	293.703078
	22.656872	82.494139	138.813479	84.612124	305.919742
	21.671746	81.697707	136.759434	84.293449	302.750589
	20.489596	79.786269	134.231378	81.903386	295.921032
	20.267943	78.989836	133.125353	79.991336	292.106525
	19.208933	78.193404	131.861325	78.716636	288.771365
	18.223807	76.441252	131.545318	77.919949	285.906519
	17.287938	74.211241	129.017262	77.441936	280.670439
	16.475210	75.326246	129.965283	74.892536	280.184066
	15.563969	70.706938	125.699189	71.546448	267.952575
	14.972894	70.388365	128.069241	70.749761	269.207367
	14.455703	68.476927	123.329136	68.359698	260.165762
	14.677356	68.954786	122.539119	65.810299	257.304203
	13.150412	62.583327	117.641010	63.898249	244.122585
	12.386940	61.946180	115.902972	60.711499	238.560651
	11.549583	60.353316	113.848926	58.640111	232.842353
	11.401814	59.875456	111.004863	55.612699	226.493018
	10.983136	54.141142	107.370783	52.903961	214.415886
	10.564458	53.822569	107.370783	50.673236	211.866588
	9.998011	51.592558	105.158734	49.557874	206.309165
	9.677845	49.681120	102.630678	47.167811	199.479609
	8.939001	48.406828	103.420695	43.981061	195.808584
	8.594207	45.221098	98.680590	42.706361	186.608049
	8.175529	43.787519	96.626545	39.678949	180.093012
	7.879991	40.601790	93.150468	36.651536	170.403793
	7.633710	42.513227	90.622412	36.810874	169.946513
	7.338172	35.663908	88.884373	32.349424	156.897705
	6.771725	35.504621	85.250293	30.437373	151.192287
	6.944122	33.274610	84.460275	29.322011	147.056896
	6.747097	34.708189	83.354251	27.250623	145.313063
	6.426932	28.814589	81.616212	24.541886	134.972687
	6.106766	31.841032	82.564233	25.657249	140.062513
	6.156022	27.221723	80.984198	23.585861	131.791783
	5.786600	29.929594	77.192114	19.443086	126.564794
	6.180650	21.487409	72.768016	17.849711	112.105137
	5.515691	25.469572	74.822062	19.124411	119.416044
	5.614203	21.646696	71.345985	16.893686	109.886367
	5.589575	24.195280	71.503988	15.300311	110.999579
	5.712716	19.257399	70.081957	14.822299	104.161654
	5.638831	19.894544	68.817928	14.981636	103.694109
	5.712716	17.983107	68.343918	11.954224	98.281248
	5.564947	19.098112	68.185914	11.954224	99.238250
	5.688088	15.912382	65.657859	10.838861	92.409101
	5.638831	17.983107	65.815862	10.838861	94.637830
	5.885113	14.319517	63.445810	8.289461	86.054788
	5.466434	14.478804	62.655792	11.954224	89.088819
	5.909741	16.071669	63.603813	8.130124	87.805605
	5.564947	14.956663	63.603813	9.564161	88.124637
	5.934369	13.204512	61.865775	7.652111	82.722397
	5.811228	16.230955	63.761817	9.086149	89.078920
	6.131394	15.912382	60.443743	6.855424	83.211549
	5.983625	14.000944	63.129802	9.404824	86.535570
	6.156022	14.000944	63.919820	6.536749	84.457513
	6.180650	15.434522	62.813796	8.448799	86.697116
	6.747097	16.549528	66.131869	10.520186	93.201583
	6.205278	14.160231	62.181782	6.855424	83.197436
	6.476188	14.000944	63.603813	7.174099	84.778856
	6.328419	17.664534	65.657859	13.866274	97.188666
	6.377675	13.045225	61.075757	7.014761	81.135743
	6.426932	16.868101	62.971799	8.767474	88.607374
	6.919494	17.186674	66.289873	11.954224	95.430770
	6.599328	15.434522	62.813796	8.767474	87.015792
	6.550072	15.593809	65.657859	9.882836	91.134503
	6.697841	18.938826	66.763883	10.360849	96.063557
	6.673213	15.912382	65.973866	12.910248	94.796496
	6.451560	19.735258	67.711904	12.910248	100.357411
	6.402303	17.823820	67.711904	12.272899	97.808622
	5.958997	18.301680	63.603813	10.042174	91.947666
	6.328419	15.434522	66.763883	10.679524	92.877929
	6.082138	17.027387	65.815862	10.201511	93.044761
	6.229906	16.390241	66.289873	12.113561	94.793675
	5.983625	18.779539	66.289873	9.086149	94.155560
	5.983625	15.275236	69.133936	10.679524	95.088695
	6.032881	16.708815	67.079890	10.679524	94.468228
	5.712716	15.434522	67.079890	9.564161	92.078574
	5.811228	21.009550	68.185914	11.635549	100.831013
	5.638831	15.275236	65.025845	9.564161	89.865242
	5.663459	17.505247	66.921886	12.113561	96.540695
	5.688088	13.523085	62.181782	7.333436	83.038302
	5.638831	16.868101	66.921886	11.476211	95.266199
	5.614203	17.823820	65.025845	9.404824	92.254488
	5.663459	15.912382	64.867841	8.608136	89.388359
	5.860485	16.230955	64.709838	9.564161	90.504954
	5.589575	15.753096	66.131869	10.042174	91.927138
	6.008253	19.257399	66.447876	9.882836	95.588110
	5.811228	14.797377	65.499855	8.130124	88.427355
	6.106766	17.027387	66.605880	10.838861	94.472128
	6.082138	17.027387	65.025845	8.608136	90.661368
	6.353047	15.753096	63.761817	7.652111	87.167023
	6.229906	14.638090	62.181782	9.086149	85.906020
	6.377675	14.956663	64.077824	6.377411	85.411898
	6.697841	15.434522	63.129802	7.174099	85.738423
	7.067263	13.682371	61.233761	5.262049	80.178180
	6.845610	14.638090	63.603813	7.174099	85.416002
	6.919494	14.638090	66.921886	6.696086	88.256062
	6.894866	15.593809	64.393830	7.811449	87.799088
	7.264288	15.275236	64.867841	9.723499	89.866576
	7.239660	16.549528	64.235827	7.811449	88.596804
	7.806107	14.956663	62.971799	7.811449	85.739911
	7.707594	17.027387	64.867841	9.245486	91.140715
	8.101645	15.434522	63.919820	8.130124	87.484466
	8.027760	17.345961	63.603813	7.811449	88.761222
	8.544951	14.160231	63.919820	10.520186	88.600236
	8.741976	15.275236	64.393830	6.377411	86.046477
	8.717348	13.363798	63.761817	7.492774	84.618388
	8.865117	19.098112	66.921886	8.608136	94.628135
	9.012885	14.319517	64.393830	8.289461	87.002809
	9.086770	17.823820	66.447876	9.564161	93.835857
	9.431564	15.275236	64.551834	8.289461	88.116531
	9.357679	20.213117	65.499855	9.245486	94.958459
	9.998011	17.505247	67.711904	11.794886	97.012037
	9.480820	21.009550	68.817928	13.866274	103.693752
	10.293548	17.027387	65.815862	10.838861	93.682111
	10.318176	19.098112	68.501922	11.157536	98.757570
	10.589086	19.894544	68.027911	12.910248	100.832704
	10.515202	20.850264	70.239960	14.344286	105.434510
	10.539830	18.460966	70.713971	12.113561	101.288498
	10.465945	21.168837	69.765950	14.344286	105.279072
	10.786111	22.920988	72.294006	14.981636	110.196630
	11.327930	24.673140	74.980065	18.487061	118.140265
	11.451071	21.965269	70.081957	14.662961	106.710186
	11.869749	24.832426	73.874041	21.036461	119.742928
	11.672724	25.947432	73.558034	17.849711	117.355176
	11.377186	24.354567	73.558034	19.124411	117.037011
	11.943633	24.673140	74.190048	18.646399	117.509586
	11.820493	26.743864	77.350118	20.558449	124.652430
	12.263799	26.584578	74.032044	18.009048	118.625670
	12.017518	25.310286	75.454076	21.833149	122.597510
	12.411568	27.062437	77.666125	21.195799	125.924360
	12.066774	28.655302	77.192114	23.426524	129.273940
	12.510080	27.381010	77.192114	21.673811	126.246935
	12.534708	29.292448	79.404163	24.860561	133.557172
	13.027271	28.655302	78.930153	23.585861	131.171315
	12.017518	30.726026	80.668191	24.860561	136.254779
	12.583965	32.318891	83.828261	28.365986	144.513138
	12.066774	32.159605	83.512254	26.613274	142.285133
	12.707105	32.318891	84.776282	27.728636	144.823810
	12.165286	32.478178	83.828261	28.206648	144.513087
	12.386940	31.522459	82.090223	27.887974	141.500655
	12.239171	34.708189	83.670258	27.091286	145.469732
	12.313055	31.363172	82.090223	31.234061	144.687456
	12.091402	33.115324	84.144268	28.525324	145.784916
	12.165286	32.796751	84.302272	28.843999	145.943021
	12.510080	35.982481	84.460275	29.640686	150.083442
	12.189915	30.885313	82.880240	27.250623	141.016177
	11.795864	33.911756	84.618279	29.640686	148.170721
	12.042146	34.389616	85.882306	31.552736	151.824658
	11.894377	32.956038	86.988331	27.887974	147.832342
	11.721980	34.389616	85.566300	29.162674	149.118589
	11.500327	32.637465	84.460275	29.481348	146.579088
	11.697352	33.593183	85.250293	29.481348	148.324825
	11.598839	31.363172	81.774216	26.931949	140.069336
	11.451071	35.026762	85.566300	30.278036	150.871098
	11.524955	32.956038	85.092289	30.915386	148.963713
	11.254046	32.956038	84.144268	27.728636	144.828942
	11.229417	31.522459	84.776282	28.206648	144.505390
	11.451071	32.796751	86.040310	27.250623	146.087684
	11.180161	32.000318	84.618279	28.365986	144.984583
	10.909252	32.637465	85.092289	26.613274	144.343027
	10.712227	31.522459	83.354251	29.800024	144.676733
	10.933880	33.593183	82.090223	26.931949	142.615354
	10.662970	28.973875	82.248226	26.135261	137.357362
	10.687598	31.681745	82.248226	26.772611	140.702583
	10.712227	29.929594	81.300205	25.816586	137.046385
	10.465945	33.752470	83.828261	26.772611	144.353342
	10.712227	30.566740	83.828261	28.365986	142.760987
	10.392061	29.451735	80.826194	25.497911	135.775840
	10.441317	28.814589	83.512254	24.223211	136.550054
	9.924126	32.478178	83.354251	27.250623	143.083052
	10.219664	29.770307	82.722237	25.497911	137.990455
	9.825614	30.885313	82.406230	25.497911	138.789454
	10.145780	28.655302	78.930153	24.382548	131.968003
	9.924126	28.814589	80.510188	25.975924	135.300700
	10.022639	31.203886	79.720170	24.860561	135.784617
	9.751729	28.655302	79.878174	24.701224	133.234699
	10.022639	28.177443	79.404163	23.904536	131.486142
	9.874870	27.540297	77.982132	21.673811	127.196239
	9.874870	27.699583	77.350118	21.036461	126.086162
	9.874870	24.195280	77.824128	22.789174	124.808582
	9.850242	26.425291	77.350118	21.036461	124.811870
	9.653217	28.018156	80.826194	23.267186	132.111536
	10.096523	28.018156	78.298139	22.311161	128.627455
	9.579332	27.540297	77.508121	22.948511	127.996928
	9.628589	24.195280	76.244093	20.239773	120.679146
	9.505448	28.655302	77.982132	23.267186	129.904620
	9.677845	26.266004	74.348051	20.717786	121.331841
	9.357679	26.743864	78.772149	22.470499	127.986512
	9.653217	25.628858	77.982132	21.673811	125.284801
	9.505448	27.381010	78.298139	22.311161	127.990310
	9.554704	24.195280	77.350118	19.602424	121.147821
	9.579332	28.336729	78.298139	21.992486	128.627354
	9.603961	25.150999	76.560100	22.470499	124.181598
	9.283795	29.929594	80.510188	23.267186	133.706968
	9.480820	23.239561	74.190048	19.602424	117.032032
	9.185282	28.336729	77.666125	22.311161	128.314015
	9.554704	24.354567	76.244093	20.717786	121.316446
	9.037514	25.788145	75.928086	19.443086	121.159317
	9.209910	24.673140	76.402096	21.036461	122.111697
	8.815860	31.044600	80.984198	23.904536	135.933334
	8.988257	23.398847	76.402096	20.239773	120.040717
	8.963629	27.699583	79.088156	22.948511	129.736250
	8.939001	23.558134	75.138069	18.965074	117.661276
	8.668092	27.540297	77.034110	20.239773	124.814181
	8.865117	24.354567	75.770083	21.355136	121.479785
	8.741976	25.628858	75.296072	19.283748	120.208679
	8.840489	23.239561	74.348051	18.327724	115.915335
	8.569579	23.876707	74.980065	19.602424	118.459195
	8.766604	26.584578	75.138069	20.080436	121.803082
	8.175529	25.628858	77.350118	19.761761	122.740737
	8.766604	25.947432	78.298139	21.673811	125.919381
	8.397182	24.354567	75.928086	20.399111	120.681764
	8.569579	25.628858	74.506055	18.487061	118.621974
	8.298670	25.150999	77.350118	20.717786	123.218903
	8.495695	21.965269	71.345985	17.212361	110.523614
	8.323298	23.080275	74.032044	17.690373	114.802692
	8.741976	25.310286	73.084023	16.575011	114.969320
	8.397182	24.513853	75.928086	20.717786	121.159725
	8.594207	23.080275	73.716037	18.805736	115.602047
	8.175529	22.283842	74.348051	16.096999	112.728891
	8.668092	25.469572	73.716037	17.531036	116.716645
	8.544951	22.761702	76.086090	18.327724	117.175515
	8.717348	21.168837	72.452009	15.459649	109.080494
	8.421810	23.558134	72.452009	17.690373	113.700516
	8.889745	23.239561	72.768016	19.602424	115.610000
	8.323298	22.920988	72.136002	16.893686	111.950676
	8.791232	20.850264	72.136002	15.778324	108.764589
	8.520323	23.876707	73.242027	17.371699	114.490432
	8.668092	20.372404	71.977998	15.459649	107.810051
	8.471067	24.354567	72.768016	16.575011	113.697594
	8.815860	20.213117	74.664058	17.690373	112.567549
	8.471067	23.876707	73.874041	15.937661	113.688409
	8.569579	20.531690	73.084023	15.778324	109.394037
	8.668092	25.310286	73.400030	17.212361	115.922677
	8.815860	20.850264	72.452009	16.256336	109.558609
	8.495695	21.965269	72.452009	14.344286	108.761564
	8.692720	22.124555	71.503988	19.921099	113.549642
	8.668092	22.602415	71.029978	13.866274	107.498666
	8.692720	20.690977	71.977998	15.778324	108.447299
	8.421810	24.035993	74.506055	18.327724	116.869772
	8.914373	22.761702	73.400030	17.690373	113.852105
	8.815860	23.717420	76.402096	17.690373	117.809890
	8.914373	22.920988	73.874041	18.009048	114.804077
	8.692720	22.761702	74.822062	17.690373	115.274136
	8.988257	23.080275	74.822062	17.849711	115.752047
	8.815860	24.035993	72.926020	18.168386	115.130399
	9.357679	23.717420	74.664058	18.487061	116.868540
	9.160654	23.717420	73.558034	18.168386	115.443840
	9.382307	24.991712	74.980065	19.283748	119.255526
	9.357679	22.602415	74.506055	19.761761	116.870231
	9.579332	25.150999	75.138069	19.124411	119.413478
	9.456192	23.080275	74.980065	18.009048	116.069388
	9.677845	22.443129	76.402096	17.849711	116.694936
	9.382307	24.195280	75.454076	19.124411	118.773767
	9.677845	24.673140	73.716037	17.053024	115.442200
	9.382307	23.717420	75.770083	19.283748	118.771252
	9.825614	27.062437	75.296072	21.514474	123.872983
	9.357679	24.832426	75.296072	18.646399	118.774897
	9.456192	25.310286	74.664058	19.124411	119.098755
	9.554704	24.035993	74.822062	19.283748	118.141804
	9.653217	21.965269	74.506055	16.893686	113.365010
	9.554704	25.469572	77.192114	20.399111	123.060797
	9.727101	25.628858	77.508121	22.948511	126.085490
	9.406936	25.947432	79.562167	19.921099	125.430697
	9.751729	23.398847	75.454076	18.965074	117.817997
	9.456192	27.540297	79.878174	22.151823	129.570294
	9.653217	21.965269	74.822062	17.849711	114.637041
	9.554704	27.381010	75.612079	20.558449	123.551537
	9.677845	22.602415	74.980065	20.399111	117.981591
	9.702473	27.062437	77.034110	20.877123	124.973671
	9.653217	23.398847	74.190048	18.646399	116.235294
	9.628589	28.814589	77.350118	20.877123	127.041830
	9.530076	22.761702	76.718104	18.965074	118.444879
	9.702473	25.628858	77.824128	19.602424	123.055410
	9.825614	23.558134	75.770083	20.239773	119.567990
	9.751729	28.177443	77.824128	22.311161	128.312731
	9.702473	22.124555	73.874041	18.327724	114.326320
	9.677845	26.584578	77.824128	21.833149	126.241854
	9.924126	23.080275	74.822062	18.646399	116.548735
	9.653217	27.540297	76.244093	19.283748	123.068138
	9.874870	23.398847	76.086090	18.805736	118.290673
	9.653217	24.354567	76.718104	22.948511	124.021181
	9.480820	24.035993	75.928086	19.283748	119.247828
	9.382307	28.655302	81.616212	24.223211	134.494725
	9.653217	24.513853	75.612079	19.443086	119.569018
	9.677845	28.814589	79.720170	24.223211	132.757970
	9.751729	22.443129	74.348051	17.053024	113.844203
	9.603961	25.469572	74.980065	21.992486	122.442123
	9.800986	26.106718	76.402096	18.327724	120.836538
	9.505448	24.354567	76.718104	20.558449	121.631119
	9.554704	24.673140	76.244093	19.921099	120.838331
	9.283795	26.425291	78.456142	21.514474	126.395906
	9.800986	24.991712	74.664058	17.053024	116.708794
	9.456192	24.354567	77.034110	20.877123	122.265800
	9.653217	23.398847	77.666125	19.283748	120.348721
	9.308423	26.584578	78.298139	21.036461	125.919177
	9.579332	25.310286	77.508121	20.080436	122.898843
	9.357679	25.788145	77.508121	20.558449	123.854714
	9.628589	24.354567	75.612079	19.124411	119.091057
	9.554704	26.425291	78.140135	21.673811	126.239237
	9.480820	23.717420	76.244093	20.877123	120.838637
	9.111398	27.699583	77.350118	20.877123	125.926824
	9.357679	25.788145	78.614146	22.151823	126.554114
	9.357679	25.150999	78.772149	20.239773	124.162921
	9.406936	24.354567	77.034110	19.443086	120.831763
	9.333051	27.062437	78.456142	20.239773	125.758353
	9.259167	24.991712	77.508121	21.673811	124.173644
	9.505448	25.469572	75.612079	18.805736	119.887387
	9.776358	24.832426	77.350118	20.239773	122.422317
	9.628589	29.451735	77.982132	22.629836	130.063702
	9.456192	23.398847	76.244093	19.921099	119.564039
	9.111398	30.407453	79.562167	22.151823	132.121443
	9.406936	25.628858	78.140135	20.877123	124.646117
	9.456192	28.814589	77.982132	22.311161	129.107881
	9.160654	25.310286	80.984198	21.036461	127.330945
	9.185282	25.947432	78.772149	21.992486	126.712067
	9.234539	25.947432	77.508121	21.195799	124.651351
	9.382307	27.699583	78.298139	21.036461	127.034183
	9.259167	24.832426	75.612079	19.124411	119.568916
	9.333051	26.106718	78.456142	25.019899	129.582759
	9.111398	26.743864	77.824128	21.036461	125.604453
	9.111398	25.310286	76.876107	21.036461	123.222854
	9.357679	27.381010	77.666125	21.036461	126.083596
	9.357679	26.106718	79.720170	22.789174	128.616062
	9.333051	26.106718	78.140135	20.717786	124.964639
	9.333051	25.628858	81.142202	23.585861	130.356921
	9.308423	28.336729	78.456142	19.921099	126.713970
	9.505448	24.035993	78.930153	20.558449	123.524595
	8.914373	26.425291	79.878174	21.355136	127.658601
	9.259167	25.628858	76.244093	21.036461	122.909413
	9.062142	27.221723	77.824128	19.921099	124.966950
	9.283795	25.469572	77.034110	23.585861	126.089543
	9.406936	23.558134	74.506055	19.443086	117.507274
	9.234539	25.469572	78.614146	21.195799	125.279516
	9.160654	27.381010	80.194181	22.151823	129.727014
	9.209910	25.469572	78.772149	21.992486	126.234207
	9.283795	23.080275	77.192114	18.805736	119.078125
	9.406936	24.195280	76.718104	18.646399	119.559782
	8.963629	26.584578	77.666125	23.904536	128.155238
	8.988257	24.832426	77.824128	20.717786	123.374340
	8.741976	26.266004	77.982132	22.311161	126.559297
	8.914373	21.009550	73.716037	17.053024	111.778611
	8.865117	24.673140	77.824128	21.355136	123.852404
	9.136026	25.788145	76.402096	19.761761	121.952002
	8.766604	23.717420	76.876107	20.558449	121.151976
	8.939001	25.310286	79.404163	21.036461	125.750910
	8.939001	25.150999	77.824128	20.239773	123.214900
	9.357679	28.814589	78.930153	22.311161	130.055902
	8.865117	25.150999	78.456142	21.673811	125.280952
	8.988257	24.195280	76.876107	20.080436	121.151823
	8.791232	24.832426	77.034110	19.921099	121.787635
	8.988257	24.035993	75.138069	20.239773	119.413836
	8.692720	24.832426	77.508121	20.558449	122.898995
	9.062142	22.602415	76.560100	20.080436	119.242951
	8.766604	26.106718	76.876107	21.036461	124.019286
	8.889745	22.920988	77.034110	19.283748	119.238847
	8.939001	25.310286	77.824128	19.761761	122.896175
	9.431564	21.168837	75.138069	21.036461	117.343366
	8.741976	27.062437	80.352184	22.151823	129.566445
	9.136026	23.558134	76.402096	19.761761	119.721992
	8.668092	27.221723	76.718104	20.080436	124.020263
	9.086770	21.168837	74.980065	18.009048	114.157950
	8.791232	24.991712	76.086090	19.124411	120.202213
	9.136026	20.531690	72.926020	17.690373	111.148084
	9.111398	27.858870	77.350118	19.124411	124.333398
	9.259167	21.009550	75.612079	18.646399	115.268028
	8.939001	24.991712	77.034110	20.399111	122.424934
	9.308423	24.035993	78.614146	20.239773	122.889913
	9.160654	27.540297	77.192114	19.921099	124.653509
	9.185282	22.920988	75.454076	19.602424	117.977487
	9.037514	23.717420	75.928086	20.717786	120.363293
	9.111398	24.354567	76.086090	19.602424	120.043080
	8.840489	27.699583	77.666125	21.514474	126.880181
	9.111398	21.805983	75.454076	19.761761	117.021819
	8.914373	27.381010	80.036177	22.948511	130.365698
	9.062142	22.920988	76.244093	18.168386	117.333467
	9.037514	25.469572	80.352184	21.992486	127.814242
	9.111398	25.628858	78.298139	21.992486	125.919483
	9.062142	24.673140	78.456142	20.080436	123.209718
	9.185282	21.646696	74.980065	18.168386	114.795147
	8.865117	23.239561	74.348051	18.965074	116.552685
	9.357679	25.310286	76.244093	19.283748	120.838127
	9.062142	25.947432	77.666125	23.904536	127.518092
	9.357679	21.328123	74.506055	16.893686	112.727864
	9.111398	24.513853	77.034110	20.399111	121.947074
	9.382307	24.513853	76.244093	19.602424	120.360369
	9.185282	24.035993	77.192114	20.399111	121.627219
	9.086770	21.965269	77.508121	17.531036	117.004426
	9.136026	24.991712	77.666125	21.036461	123.694298
	9.333051	23.239561	77.666125	20.399111	121.304797
	9.185282	24.991712	77.192114	20.080436	122.264263
	9.480820	23.717420	76.086090	20.717786	120.521296
	9.185282	24.673140	77.034110	20.399111	122.106361
	9.382307	22.920988	75.928086	19.761761	118.610835
	8.963629	25.310286	76.244093	18.805736	120.360114
	9.431564	23.876707	77.666125	22.629836	124.172668
	9.308423	23.717420	77.508121	19.761761	120.987302
	9.628589	23.080275	77.666125	19.921099	120.667498
	8.988257	26.903150	80.352184	21.673811	128.929146
	9.086770	20.531690	74.664058	17.531036	112.726785
	9.308423	25.788145	77.508121	20.717786	124.014052
	9.160654	21.805983	76.560100	19.602424	117.968506
	8.865117	26.903150	76.718104	22.789174	126.410428
	9.012885	22.124555	76.876107	19.602424	118.603086
	8.914373	24.991712	77.508121	21.036461	123.536294
	9.012885	23.717420	77.034110	20.717786	121.469317
	8.865117	25.469572	76.244093	18.327724	120.041388
	8.939001	23.398847	79.246160	20.558449	123.203456
	8.668092	25.310286	78.930153	22.948511	127.188949
	9.086770	24.832426	80.352184	20.717786	125.902396
	9.111398	23.876707	76.560100	19.921099	120.357906
	9.308423	24.354567	77.508121	20.877123	122.739811
	9.185282	24.035993	77.350118	20.080436	121.466547
	9.136026	21.646696	74.190048	17.212361	113.049105
	8.939001	26.106718	79.720170	24.860561	130.687449
	9.234539	24.832426	76.560100	19.443086	120.835612
	8.963629	22.761702	75.612079	19.921099	118.294879
	9.111398	22.602415	76.244093	19.443086	118.289594
	9.136026	23.876707	77.982132	20.080436	121.939275
	9.185282	24.832426	76.876107	19.283748	120.992282
	9.209910	22.761702	79.246160	21.036461	123.044322
	9.185282	24.832426	78.772149	20.717786	124.322361
	9.086770	23.717420	76.560100	20.080436	120.357957
	9.012885	25.947432	76.876107	19.921099	122.744637
	9.259167	22.283842	75.612079	19.283748	117.179669
	8.815860	24.673140	77.982132	21.355136	124.010407
	9.012885	23.558134	76.244093	19.443086	119.245313
	9.283795	24.673140	77.824128	21.036461	123.533729
	9.037514	23.558134	77.666125	18.646399	119.870657
	9.062142	24.673140	80.036177	21.673811	126.383128
	8.741976	21.646696	75.454076	18.168386	115.269158
	9.012885	28.973875	80.510188	25.338573	134.822636
	9.185282	23.558134	76.876107	19.124411	119.558652
	9.086770	22.920988	74.506055	20.239773	117.666816
	9.382307	23.876707	76.560100	21.514474	121.951280
	9.357679	23.398847	77.034110	20.239773	120.672731
	9.062142	26.425291	78.614146	21.355136	126.394573
	8.914373	23.558134	77.508121	20.558449	121.624704
	9.012885	23.398847	79.088156	19.124411	121.611415
	9.111398	24.195280	77.508121	20.717786	122.421187
	9.333051	24.354567	76.876107	20.877123	122.107797
	9.234539	24.035993	78.772149	21.514474	124.322616
	9.357679	22.443129	75.454076	19.283748	117.180953
	9.185282	24.513853	77.666125	21.355136	123.535114
	9.308423	24.673140	75.454076	20.080436	120.207651
	9.185282	24.195280	77.350118	20.558449	122.103846
	9.727101	22.920988	76.402096	21.673811	120.996895
	9.062142	25.469572	77.824128	20.558449	123.852148
	9.111398	22.283842	75.454076	19.124411	116.862329
	8.963629	25.150999	78.614146	20.877123	124.642268
	9.111398	22.920988	77.350118	20.239773	120.510879
	8.939001	24.195280	79.088156	19.443086	122.726522
	8.963629	21.328123	76.402096	21.673811	119.404031
	9.012885	26.743864	77.192114	21.992486	125.928464
	9.456192	21.805983	75.612079	18.805736	116.223797
	9.111398	24.991712	77.508121	21.833149	124.332982
	8.889745	22.443129	75.612079	19.761761	117.816969
	8.840489	25.947432	77.824128	20.399111	124.170670
	8.889745	22.283842	78.298139	19.283748	119.865729
	9.062142	21.009550	74.822062	20.558449	116.390060
	9.062142	22.920988	79.878174	19.283748	122.082910
	9.062142	26.425291	78.140135	21.195799	125.761224
	9.160654	21.646696	77.192114	19.443086	118.281896
	9.012885	25.310286	79.404163	21.514474	126.228922
	9.283795	21.965269	74.190048	18.487061	114.642377
	8.889745	22.920988	76.718104	21.514474	121.153565
	9.160654	21.965269	73.242027	18.168386	113.375682
	9.012885	23.876707	77.508121	21.036461	122.421289
	9.209910	21.965269	76.244093	19.283748	117.493111
	9.086770	28.018156	80.510188	21.992486	130.520830
	9.234539	21.487409	76.402096	19.443086	117.332592
	9.111398	24.673140	77.666125	20.717786	123.057050
	9.234539	22.283842	76.718104	18.965074	117.967019
	8.988257	25.310286	77.666125	22.311161	125.287571
	9.283795	21.965269	78.930153	20.239773	121.135195
	8.840489	24.195280	77.350118	20.239773	121.785171
	9.136026	21.487409	78.930153	20.399111	120.816673
	8.939001	26.106718	77.508121	20.877123	124.491962
	9.209910	22.283842	76.402096	19.443086	118.129024
	9.086770	24.354567	77.982132	20.239773	122.576472
	9.086770	21.646696	76.718104	22.311161	120.675961
	9.037514	24.513853	75.454076	19.602424	119.570352
	9.062142	22.443129	77.508121	20.399111	120.350361
	9.012885	24.513853	79.720170	21.036461	125.270484
	8.988257	21.168837	76.876107	19.921099	117.966042
	8.914373	23.080275	74.822062	19.283748	117.186085
	9.209910	21.965269	76.560100	18.646399	117.171768
	9.160654	24.991712	77.824128	22.629836	125.445677
	9.456192	21.965269	74.664058	20.239773	116.869101
	8.865117	23.876707	77.508121	20.399111	121.783939
	9.037514	22.283842	78.298139	20.558449	121.140429
	8.741976	23.717420	77.508121	20.877123	122.102665
	9.185282	26.584578	79.878174	23.904536	130.367287
	9.086770	26.743864	79.720170	21.992486	128.456520
	8.963629	23.239561	76.718104	22.629836	122.587501
	8.914373	24.195280	77.350118	22.151823	123.697221
	8.791232	24.035993	77.824128	20.717786	122.577908
	9.136026	24.991712	79.246160	21.673811	125.911683
	9.012885	23.239561	77.982132	21.036461	122.258154
	9.086770	24.832426	80.510188	20.877123	126.219737
	8.963629	21.965269	77.508121	19.283748	118.757138
	8.815860	23.558134	75.770083	22.151823	121.480040
	8.988257	22.602415	77.666125	20.239773	120.508313
	9.062142	24.035993	77.034110	21.036461	122.106565
	8.865117	23.398847	77.192114	21.355136	121.946098
	8.840489	25.469572	76.876107	20.080436	122.426115
	8.889745	21.328123	75.928086	18.965074	116.221283
	9.062142	24.513853	78.456142	22.311161	125.281156
	8.988257	23.398847	78.614146	22.470499	124.483492
	8.865117	26.106718	77.982132	20.877123	124.965973
	8.815860	23.080275	79.404163	21.195799	123.680236
	9.012885	22.920988	76.718104	19.761761	119.400853
	8.618835	23.876707	76.086090	20.877123	120.839920
	8.889745	23.398847	74.506055	17.849711	115.754613
	8.569579	22.443129	77.192114	20.717786	120.353029
	9.062142	22.283842	77.350118	21.992486	121.626446
	8.594207	23.558134	78.456142	20.717786	122.732062
	8.840489	24.354567	75.454076	19.602424	119.411066
	8.618835	22.283842	76.718104	20.399111	119.401057
	9.062142	22.602415	74.348051	19.761761	116.712227
	8.668092	23.558134	77.824128	20.717786	122.100048
	9.012885	24.195280	76.086090	19.761761	120.043131
	8.889745	21.965269	76.402096	21.355136	119.722502
	9.062142	22.602415	76.402096	19.443086	118.447598
	8.963629	22.761702	80.036177	20.558449	123.356327
	9.136026	25.469572	77.192114	20.239773	122.901460
	8.939001	21.009550	75.612079	18.487061	115.108690
	8.741976	23.558134	77.508121	19.921099	120.987354
	8.766604	24.195280	77.034110	22.151823	123.381214
	9.160654	24.035993	75.454076	16.415674	115.905743
	8.865117	21.328123	75.770083	19.283748	116.381954
	9.062142	21.965269	74.822062	19.602424	116.389754
	8.963629	24.673140	78.930153	21.673811	125.277103
	9.136026	24.035993	77.508121	18.646399	120.190513
	8.766604	23.558134	78.298139	20.877123	122.733396
	8.939001	20.213117	73.716037	19.283748	113.212903
	8.766604	24.195280	77.666125	20.080436	121.941841
	9.062142	27.221723	77.034110	22.470499	126.726332
	8.741976	24.513853	78.930153	22.948511	126.392516
	9.111398	23.717420	77.034110	21.036461	121.787992
	9.136026	24.673140	77.824128	19.124411	121.621679
	9.259167	25.788145	78.614146	22.311161	126.713452
	8.815860	23.717420	80.984198	22.151823	126.853442
	8.963629	22.602415	77.192114	19.443086	119.237615
	8.717348	22.920988	76.560100	19.602424	119.083512
	8.889745	24.195280	75.770083	19.283748	119.249111
	8.963629	24.832426	79.088156	23.267186	127.187768
	9.136026	19.735258	73.874041	16.415674	110.024972
	8.914373	23.398847	76.718104	19.921099	120.038050
	9.136026	21.805983	75.770083	19.124411	116.700476
	9.037514	22.920988	77.508121	19.443086	119.872195
	9.308423	21.009550	77.192114	18.487061	116.688725
	9.234539	25.947432	79.404163	22.789174	128.140768
	9.160654	23.398847	74.190048	18.646399	116.235294
	8.939001	21.965269	77.350118	19.124411	118.439798
	9.259167	20.372404	74.506055	18.327724	113.206182
	8.815860	24.035993	75.770083	21.992486	121.798562
	9.160654	21.646696	75.612079	17.690373	114.949148
	8.766604	24.513853	79.720170	22.151823	126.385847
	8.791232	23.080275	78.298139	21.195799	122.574212
	8.791232	23.558134	77.982132	20.239773	121.780039
	9.086770	21.965269	76.244093	18.327724	116.537086
	8.939001	24.354567	77.034110	24.223211	125.611888
	8.840489	21.328123	76.560100	19.443086	117.331309
	8.865117	24.513853	77.666125	21.992486	124.172464
	8.988257	22.124555	77.350118	21.355136	120.829809
	8.865117	26.425291	78.298139	21.833149	126.556578
	9.062142	22.283842	77.508121	19.921099	119.713062
	8.914373	24.832426	78.456142	22.629836	125.918404
	9.185282	23.239561	79.404163	21.992486	124.636210
	8.840489	25.150999	77.192114	20.399111	122.742224
	8.865117	22.283842	76.086090	20.877123	119.247055
	8.643463	25.788145	79.404163	22.948511	128.140819
	8.840489	21.009550	75.770083	19.921099	116.700731
	8.520323	23.717420	74.980065	18.646399	117.343884
	9.234539	22.761702	77.982132	21.833149	122.576982
	8.914373	24.035993	78.930153	24.223211	127.189357
	9.012885	20.850264	76.086090	18.965074	115.901427
	9.111398	24.035993	75.454076	20.399111	119.889180
	9.111398	23.876707	79.088156	22.470499	125.435362
	8.988257	24.195280	76.560100	21.514474	122.269854
	8.717348	23.558134	78.772149	22.311161	124.641444
	9.062142	24.832426	76.876107	20.877123	122.585656
	9.333051	21.965269	77.982132	22.789174	122.736574
	8.889745	23.398847	77.982132	20.239773	121.620753
	9.234539	23.717420	80.668191	21.992486	126.378098
	9.111398	25.150999	77.666125	21.195799	124.012922
	9.185282	21.965269	76.086090	20.239773	118.291132
	8.865117	23.398847	77.666125	20.399111	121.464083
	9.086770	22.920988	77.192114	22.470499	122.583601
	9.037514	26.266004	77.824128	19.921099	124.011231
	9.456192	23.239561	77.982132	21.833149	123.054841
	9.185282	23.080275	77.192114	20.239773	120.512162
	9.037514	21.328123	75.928086	18.965074	116.221283
	9.136026	28.177443	81.142202	22.789174	132.108818
	8.914373	21.009550	76.402096	19.443086	116.854733
	9.357679	20.372404	73.558034	19.283748	113.214186
	9.062142	22.920988	76.876107	19.921099	119.718194
	8.988257	22.124555	72.926020	17.690373	112.740949
	9.062142	25.150999	77.192114	21.355136	123.698249
	9.283795	22.283842	76.402096	20.080436	118.766374
	8.963629	22.443129	76.244093	18.327724	117.014945
	9.579332	26.266004	77.982132	21.673811	125.921947
	9.062142	22.602415	79.404163	22.311161	124.317739
	9.456192	22.761702	77.034110	19.761761	119.557573
	9.456192	24.673140	76.560100	21.514474	122.747713
	9.234539	22.761702	74.822062	18.487061	116.070824
	9.111398	21.009550	75.296072	19.124411	115.430033
	8.963629	20.690977	74.822062	18.168386	113.681425
	9.308423	23.080275	76.560100	19.921099	119.561473
	9.382307	23.717420	78.614146	20.399111	122.730677
	9.111398	22.124555	77.508121	19.602424	119.235100
	9.308423	20.850264	76.244093	18.965074	116.059430
	9.406936	23.080275	76.876107	20.558449	120.514830
	9.259167	23.717420	75.296072	19.443086	118.456579
	9.283795	24.673140	79.246160	22.151823	126.071123
	9.579332	20.850264	75.454076	19.921099	116.225438
	9.086770	25.469572	77.982132	23.745199	127.196902
	9.406936	23.080275	74.822062	17.849711	115.752047
	9.209910	24.354567	80.352184	22.470499	127.177249
	9.160654	20.372404	75.454076	18.965074	114.791553
	9.185282	25.628858	78.614146	22.311161	126.554165
	9.505448	23.080275	77.034110	18.805736	118.920121
	9.209910	22.761702	74.506055	23.107848	120.375605
	9.530076	21.009550	75.770083	18.965074	115.744706
	9.185282	24.195280	77.034110	21.036461	122.265851
	9.431564	23.080275	77.034110	21.036461	121.150846
	8.865117	24.195280	77.508121	20.877123	122.580524
	9.062142	20.213117	78.140135	18.327724	116.680976
	9.185282	23.398847	77.034110	21.195799	121.628757
	9.185282	21.965269	78.772149	22.470499	123.207916
	8.963629	23.876707	76.876107	19.602424	120.355238
	9.357679	23.239561	77.192114	21.833149	122.264824
	9.111398	22.443129	76.086090	19.761761	118.290979
	9.086770	24.035993	77.034110	21.036461	122.106565
	8.939001	23.558134	77.192114	19.921099	120.671346
	8.963629	23.717420	77.350118	20.399111	121.466649
	9.382307	20.531690	76.560100	20.877123	117.968914
	9.308423	22.283842	75.612079	18.646399	116.542319
	9.136026	21.487409	74.506055	18.965074	114.958538
	8.963629	20.213117	73.874041	17.212361	111.299519
	9.308423	22.443129	75.454076	19.602424	117.499628
	9.209910	27.062437	79.246160	22.948511	129.257108
	9.530076	22.124555	76.560100	19.921099	118.605754
	9.185282	23.717420	78.456142	22.948511	125.122073
	9.259167	22.124555	76.718104	19.283748	118.126408
	8.939001	23.398847	77.192114	20.877123	121.468085
	9.505448	23.876707	77.034110	20.239773	121.150591
	8.815860	23.876707	76.402096	21.036461	121.315264
	9.456192	20.372404	74.822062	17.371699	112.566164
	9.062142	23.558134	76.718104	21.833149	122.109386
	9.234539	22.602415	75.454076	18.327724	116.384214
	9.111398	25.469572	79.404163	22.789174	127.662909
	9.579332	21.965269	76.086090	19.283748	117.335107
	9.234539	23.080275	77.350118	20.717786	121.148178
	9.357679	23.558134	77.666125	18.487061	119.711320
	9.062142	21.646696	75.770083	19.283748	116.700527
	9.480820	20.531690	73.400030	19.761761	113.693481
	9.160654	23.876707	77.192114	19.283748	120.352570
	9.209910	22.124555	72.452009	17.212361	111.788926
	9.136026	23.558134	76.876107	21.036461	121.470702
	9.259167	21.487409	75.928086	19.602424	117.017919
	9.160654	23.717420	78.614146	19.602424	121.933990
	9.456192	25.788145	77.982132	21.673811	125.444088
	9.209910	25.469572	78.614146	24.541886	128.625604
	9.111398	22.124555	76.086090	18.646399	116.857044
	8.963629	26.106718	78.456142	23.585861	128.148721
	9.111398	25.150999	77.034110	21.833149	124.018258
	9.185282	23.239561	77.824128	21.355136	122.418825
	9.308423	23.080275	77.350118	19.602424	120.032816
	9.136026	25.150999	79.878174	23.107848	128.137021
	9.185282	24.991712	78.614146	21.514474	125.120332
	9.062142	22.920988	77.666125	20.399111	120.986224
	9.160654	23.717420	76.718104	21.195799	121.631323
	9.111398	23.398847	77.350118	21.195799	121.944764
	8.988257	23.876707	75.612079	19.921099	119.409884
	9.160654	22.920988	77.508121	20.877123	121.306233
	9.160654	24.035993	77.666125	21.514474	123.216592
	9.333051	22.443129	78.456142	21.514474	122.413744
	9.037514	25.947432	77.508121	20.399111	123.854664
	9.185282	21.487409	77.666125	20.399111	119.552645
	8.889745	23.876707	77.034110	20.877123	121.787941
	9.209910	22.124555	74.190048	19.124411	115.439014
	9.209910	25.469572	76.244093	19.283748	120.997413
	9.185282	20.690977	73.874041	21.992486	116.557504
	9.160654	23.398847	76.876107	20.717786	120.992741
	9.406936	20.690977	74.980065	18.805736	114.476778
	9.308423	24.673140	77.666125	21.514474	123.853738
	9.357679	22.283842	76.876107	20.239773	119.399723
	9.308423	22.283842	79.246160	18.965074	120.495075
	9.357679	21.168837	75.454076	19.283748	115.906661
	8.939001	25.628858	77.508121	24.860561	127.997540
	9.333051	23.876707	79.246160	22.151823	125.274690
	9.062142	22.920988	76.086090	20.877123	119.884201
	9.357679	24.195280	78.140135	22.470499	124.805914
	9.136026	25.469572	77.350118	21.673811	124.493501
	9.308423	22.443129	80.668191	20.717786	123.829106
	9.136026	22.761702	76.402096	19.124411	118.288209
	9.136026	22.920988	77.666125	24.382548	124.969661
	9.086770	26.743864	77.824128	21.673811	126.241803
	9.185282	22.124555	75.928086	21.195799	119.248440
	9.209910	23.558134	77.192114	21.036461	121.786709
	9.111398	23.080275	76.560100	20.717786	120.358161
	9.357679	24.513853	76.402096	20.239773	121.155723
	9.136026	23.717420	77.824128	21.195799	122.737347
	9.308423	24.035993	79.720170	24.701224	128.457387
	9.111398	23.558134	77.034110	20.239773	120.832018
	9.480820	21.805983	72.768016	18.168386	112.742384
	9.160654	23.558134	76.402096	21.195799	121.156029
	9.234539	20.690977	73.400030	19.124411	113.215418
	9.136026	24.354567	77.034110	21.036461	122.425138
	9.406936	20.531690	74.822062	20.558449	115.912200
	9.357679	24.673140	77.508121	20.399111	122.580372
	9.406936	19.416685	74.348051	18.487061	112.251797
	9.136026	23.558134	80.194181	21.195799	124.948113
	9.185282	21.487409	76.086090	20.877123	118.450623
	9.382307	25.788145	78.772149	21.355136	125.915430
	9.382307	20.372404	75.612079	19.443086	115.427569
	9.111398	24.195280	76.086090	23.426524	123.707893
	8.988257	22.602415	77.034110	20.558449	120.194974
	9.136026	21.805983	73.084023	18.168386	113.058391
	9.382307	23.080275	76.086090	22.470499	121.636863
	9.628589	27.858870	81.300205	26.135261	135.294335
	9.431564	23.398847	78.614146	21.036461	123.049454
	9.185282	25.628858	77.508121	21.992486	125.129465
	8.865117	23.398847	76.718104	23.585861	123.702812
	9.357679	21.646696	74.980065	18.009048	114.635809
	8.963629	21.487409	74.664058	20.239773	116.391241
	9.136026	22.761702	73.874041	19.921099	116.556841
	9.086770	22.124555	75.770083	20.717786	118.612424
	9.259167	21.328123	75.770083	18.965074	116.063279
	9.209910	23.558134	77.034110	21.673811	122.266055
	9.333051	25.469572	77.034110	24.063874	126.567556
	9.111398	24.195280	77.666125	20.877123	122.738528
	9.628589	22.920988	74.348051	21.514474	118.783513
	8.889745	22.920988	76.244093	22.151823	121.316904
	9.382307	24.354567	75.612079	21.355136	121.321782
	9.185282	23.876707	77.666125	21.514474	123.057305
	9.308423	23.080275	76.718104	22.629836	122.428214
	9.086770	23.080275	79.088156	22.948511	125.116942
	9.259167	25.469572	77.192114	22.311161	124.972847
	9.160654	21.965269	77.824128	21.355136	121.144533
	9.086770	23.080275	76.244093	21.833149	121.157516
	9.037514	22.920988	74.822062	20.558449	118.301498
	8.939001	25.947432	76.402096	21.195799	123.545326
	9.062142	23.398847	76.402096	25.338573	125.139517
	9.357679	23.558134	75.612079	21.195799	120.366011
	9.456192	21.328123	74.822062	19.602424	115.752608
	9.259167	24.195280	76.244093	20.239773	120.679146
	9.382307	20.213117	74.506055	19.443086	114.162258
	9.308423	24.195280	77.982132	21.195799	123.373210
	9.530076	22.602415	76.086090	20.717786	119.406291
	9.111398	26.743864	76.876107	25.657249	129.277220
	9.406936	21.009550	75.454076	20.239773	116.703399
	9.259167	25.310286	77.982132	22.789174	126.081591
	9.283795	21.965269	75.928086	21.036461	118.929816
	9.333051	26.106718	76.718104	21.355136	124.179958
	9.530076	20.372404	77.824128	19.602424	117.798956
	9.012885	23.558134	77.192114	20.239773	120.990021
	9.086770	23.239561	75.612079	24.541886	123.393526
	9.012885	25.628858	76.560100	20.717786	122.906745
	9.062142	20.213117	74.190048	19.283748	113.686914
	9.136026	22.761702	75.454076	20.877123	119.092901
	8.865117	22.920988	75.770083	21.195799	119.886869
	9.185282	26.584578	79.878174	21.833149	128.295900
	9.086770	23.080275	77.824128	21.355136	122.259539
	9.480820	21.168837	75.928086	22.311161	119.408084
	9.086770	23.876707	76.402096	20.717786	120.996589
	9.357679	23.717420	74.032044	20.558449	118.307913
	9.357679	25.310286	78.456142	23.585861	127.352289
	9.283795	20.372404	73.716037	19.283748	113.372190
	9.136026	25.628858	77.824128	22.311161	125.764148
	9.160654	23.239561	76.402096	21.833149	121.474806
	9.259167	24.673140	78.614146	21.195799	124.483084
	9.357679	22.124555	76.718104	21.355136	120.197795
	9.382307	24.035993	79.720170	21.992486	125.748650
	9.259167	21.168837	76.402096	20.877123	118.448056
	9.086770	26.903150	78.456142	22.629836	127.989128
	9.283795	21.646696	76.086090	20.717786	118.450572
	9.160654	25.310286	75.770083	22.948511	124.028879
	9.505448	23.080275	76.560100	20.717786	120.358161
	8.988257	24.832426	76.402096	21.833149	123.067671
	9.160654	23.558134	79.088156	22.470499	125.116789
	9.234539	23.558134	76.876107	21.833149	122.267390
	9.185282	21.487409	77.350118	19.761761	118.599288
	9.456192	22.920988	75.770083	20.080436	118.771506
	9.086770	24.035993	76.402096	24.063874	124.501964
	9.111398	24.354567	77.666125	21.036461	123.057152
	8.766604	27.858870	80.194181	25.179236	133.232286
	9.308423	22.602415	74.822062	21.036461	118.460937
	9.382307	25.628858	78.930153	23.904536	128.463547
	9.480820	21.009550	75.928086	18.327724	115.265360
	8.865117	24.513853	78.140135	23.267186	125.921174
	9.062142	21.965269	73.716037	21.514474	117.195780
	8.939001	22.443129	75.928086	18.965074	117.336288
	9.185282	19.735258	71.977998	18.327724	110.040980
	9.160654	23.558134	76.244093	21.355136	121.157363
	9.259167	21.168837	73.874041	18.646399	113.689276
	9.012885	24.354567	78.298139	21.833149	124.485854
	9.579332	22.602415	77.192114	22.151823	121.946353
	9.234539	24.035993	80.826194	24.382548	129.244736
	9.209910	23.876707	76.244093	20.877123	120.997923
	9.431564	23.080275	77.350118	21.992486	122.422878
	9.382307	21.646696	75.454076	20.399111	117.499883
	9.209910	22.761702	74.822062	19.443086	117.026849
	9.406936	25.469572	76.718104	21.036461	123.224137
	9.160654	21.168837	74.506055	22.789174	118.464065
	9.283795	24.354567	76.560100	23.107848	124.022515
	9.086770	24.035993	77.034110	21.673811	122.743915
	9.357679	25.628858	78.298139	21.992486	125.919483
	9.160654	23.080275	76.718104	21.673811	121.472189
	9.259167	22.920988	75.296072	20.877123	119.094183
	9.062142	25.310286	77.982132	22.789174	126.081591
	9.136026	25.947432	74.822062	24.860561	125.630054
	9.111398	23.239561	76.402096	21.992486	121.634143
	9.234539	24.195280	77.666125	22.311161	124.172566
	9.234539	23.398847	77.982132	21.673811	123.054790
	9.283795	25.310286	76.560100	21.355136	123.225522
	9.406936	21.328123	74.190048	19.124411	114.642582
	9.382307	22.920988	75.928086	19.921099	118.770173
	9.160654	22.602415	73.874041	23.426524	119.902979
	8.914373	27.699583	78.456142	23.267186	129.422911
	8.791232	19.575972	73.084023	18.168386	110.828381
	8.988257	21.805983	73.716037	19.921099	115.443118
	8.939001	23.080275	77.034110	21.992486	122.106871
	8.889745	25.469572	79.720170	20.239773	125.429516
	9.259167	23.239561	76.876107	21.514474	121.630142
	9.209910	22.761702	76.876107	23.267186	122.904995
	9.480820	21.328123	74.664058	18.965074	114.957255
	9.406936	27.858870	76.086090	22.789174	126.734133
	9.234539	20.372404	74.822062	19.602424	114.796889
	9.160654	23.080275	74.822062	20.239773	118.142110
	9.406936	19.257399	71.503988	17.053024	107.814410
	9.136026	26.903150	79.088156	23.426524	129.417830
	9.160654	21.487409	76.560100	19.124411	117.171920
	8.815860	23.876707	77.034110	21.355136	122.265953
	8.963629	23.558134	77.034110	21.833149	122.425393
	8.865117	25.310286	76.244093	21.833149	123.387527
	9.062142	22.283842	75.296072	20.877123	118.457037
	8.692720	23.717420	76.402096	20.717786	120.837303
	8.939001	24.354567	76.560100	23.745199	124.659865
	8.865117	22.761702	75.612079	19.443086	117.816867
	8.766604	23.080275	75.928086	21.036461	120.044822
	8.988257	22.443129	79.720170	21.355136	123.518435
	8.988257	24.035993	76.402096	21.833149	122.271239
	9.111398	23.717420	74.348051	19.761761	117.827233
	9.111398	22.602415	76.244093	20.399111	119.245619
	9.382307	22.124555	74.822062	22.151823	119.098441
	9.136026	24.832426	76.876107	21.195799	122.904332
	9.308423	22.761702	74.506055	20.239773	117.507530
	9.136026	22.920988	78.614146	20.877123	122.412257
	9.382307	21.487409	75.138069	20.399111	117.024589
	9.111398	23.239561	76.876107	19.921099	120.036766
	9.185282	25.469572	77.034110	21.833149	124.336831
	9.086770	24.673140	78.456142	24.860561	127.989843
	8.963629	23.398847	76.718104	20.558449	120.675400
	9.111398	21.805983	73.874041	19.761761	115.441784
	8.865117	23.876707	74.980065	21.833149	120.689920
	8.865117	23.080275	76.244093	20.877123	120.201491
	8.766604	22.761702	77.192114	19.921099	119.874914
	8.766604	21.646696	75.138069	20.558449	117.343213
	8.914373	23.080275	76.402096	21.992486	121.474857
	8.939001	22.443129	75.138069	19.443086	117.024283
	8.865117	23.717420	74.506055	21.514474	119.737949
	8.939001	21.168837	74.822062	19.921099	115.911997
	8.618835	21.965269	74.664058	19.283748	115.913076
	9.062142	23.558134	75.138069	19.443086	118.139288
	8.717348	22.443129	75.612079	24.223211	122.278419
	9.062142	22.761702	76.244093	20.877123	119.882918
	8.692720	24.513853	77.034110	22.151823	123.699787
	8.988257	24.673140	77.034110	21.195799	122.903049
	8.495695	23.398847	77.034110	22.311161	122.744119
	8.815860	23.717420	75.454076	21.036461	120.207957
	8.815860	23.876707	77.192114	21.673811	122.742632
	8.668092	24.832426	75.454076	24.541886	124.828388
	8.815860	21.009550	73.400030	20.239773	114.649354
	8.421810	23.717420	76.718104	24.541886	124.977410
	9.012885	22.124555	76.876107	20.877123	119.877786
	8.939001	25.150999	76.244093	21.833149	123.228240
	8.865117	19.894544	72.610012	18.646399	111.150955
	8.865117	24.673140	77.192114	21.514474	123.379727
	8.889745	19.098112	71.503988	21.355136	111.957236
	8.840489	25.469572	75.770083	21.195799	122.435453
	9.136026	21.009550	74.822062	20.239773	116.071385
	8.717348	24.035993	77.034110	21.833149	122.903253
	9.012885	21.009550	74.980065	20.399111	116.388726
	8.717348	26.266004	78.456142	20.558449	125.280595
	8.865117	22.124555	76.402096	21.673811	120.200463
	8.741976	24.673140	76.560100	24.860561	126.093801
	8.815860	23.080275	76.402096	21.833149	121.315519
	8.618835	27.381010	76.244093	22.311161	125.936264
	8.618835	22.443129	75.770083	21.992486	120.205697
	8.766604	23.717420	75.612079	21.036461	120.365960
	8.618835	24.354567	75.612079	21.673811	121.640456
	8.963629	24.195280	74.190048	20.558449	118.943776
	8.791232	21.965269	76.560100	19.761761	118.287130
	8.914373	22.283842	75.138069	20.399111	117.821022
	8.963629	25.310286	75.928086	22.789174	124.027545
	8.988257	22.761702	74.190048	19.283748	116.235498
	8.939001	22.124555	72.926020	19.602424	114.652999
	9.062142	20.372404	73.558034	19.283748	113.214186
	9.062142	24.991712	77.192114	23.904536	126.088363
	9.086770	23.558134	75.770083	18.327724	117.655940
	8.791232	24.832426	77.824128	23.107848	125.764403
	8.914373	23.239561	78.298139	22.151823	123.689523
	8.692720	20.531690	72.768016	18.487061	111.786767
	8.914373	23.398847	73.242027	19.602424	116.243298
	8.618835	24.035993	77.350118	22.470499	123.856610
	8.766604	23.558134	76.086090	22.948511	122.592735
	8.495695	22.283842	74.032044	18.487061	114.802947
	8.717348	25.150999	75.138069	20.558449	120.847516
	8.815860	22.124555	79.088156	21.833149	123.045860
	8.668092	22.283842	74.980065	20.717786	117.981693
	8.643463	23.558134	76.718104	21.195799	121.472036
	8.544951	25.788145	76.560100	21.514474	123.862718
	8.766604	22.602415	75.296072	22.629836	120.528323
	8.692720	24.673140	77.192114	20.877123	122.742377
	8.840489	22.920988	75.138069	21.355136	119.414192
	8.914373	26.425291	75.928086	22.311161	124.664538
	8.791232	20.213117	74.032044	19.443086	113.688247
	8.668092	22.761702	76.086090	19.443086	118.290877
	8.988257	21.009550	74.032044	19.124411	114.166005
	9.160654	23.876707	75.454076	22.789174	122.119956
	8.963629	20.531690	73.242027	18.168386	111.942103
	8.914373	24.513853	75.770083	22.470499	122.754434
	9.160654	20.850264	74.032044	19.921099	114.803406
	8.815860	25.469572	77.192114	22.789174	125.450860
	9.160654	22.761702	75.138069	20.399111	118.298881
	8.815860	21.646696	74.980065	22.789174	119.415934
	8.963629	22.602415	78.298139	20.877123	121.777677
	8.791232	24.513853	77.824128	23.426524	125.764505
	9.037514	24.195280	77.034110	21.833149	123.062539
	8.815860	22.920988	75.928086	21.673811	120.522885
	8.914373	21.646696	73.242027	19.283748	114.172471
	9.062142	22.920988	75.138069	19.602424	117.661480
	9.012885	25.469572	78.140135	26.135261	129.744968
	8.692720	22.124555	77.350118	21.195799	120.670472
	8.495695	21.646696	74.664058	20.080436	116.391190
	8.741976	21.168837	75.454076	19.761761	116.384673
	8.889745	26.106718	77.824128	23.745199	127.676045
	8.815860	22.124555	73.400030	20.239773	115.764359
	8.741976	24.035993	76.402096	20.877123	121.315213
	8.766604	22.920988	75.296072	24.223211	122.440271
	8.865117	24.832426	75.296072	22.470499	122.598997
	8.618835	22.124555	75.770083	21.036461	118.931099
	8.741976	24.991712	78.772149	23.267186	127.031047
	8.963629	21.328123	75.296072	20.717786	117.341981
	8.643463	24.673140	75.770083	20.558449	121.001671
	8.815860	21.965269	75.454076	20.399111	117.818456
	8.840489	24.195280	74.348051	24.382548	122.925879
	9.086770	20.372404	74.348051	19.283748	114.004204
	8.865117	25.628858	75.612079	21.992486	123.233424
	8.963629	21.328123	74.664058	21.036461	117.028642
	8.988257	24.035993	75.770083	21.833149	121.639225
	8.939001	20.213117	75.928086	18.168386	114.309590
	8.988257	26.425291	76.876107	23.585861	126.887259
	9.111398	22.283842	77.508121	21.195799	120.987762
	8.766604	24.195280	76.718104	22.151823	123.065207
	9.456192	21.328123	73.558034	20.239773	115.125930
	8.717348	25.628858	74.506055	20.399111	120.534024
	9.012885	20.372404	73.558034	19.921099	113.851536
	8.815860	23.558134	75.138069	20.877123	119.573326
	8.963629	22.761702	76.560100	25.657249	124.979050
	8.840489	26.106718	78.298139	21.195799	125.600655
	9.062142	24.354567	78.930153	24.382548	127.667268
	8.939001	24.832426	76.560100	22.948511	124.341037
	8.840489	21.487409	74.506055	20.399111	116.392575
	9.012885	27.381010	74.822062	21.992486	124.195558
	8.791232	23.717420	77.192114	22.948511	123.858046
	9.382307	24.673140	76.718104	23.904536	125.295779
	8.939001	23.876707	77.350118	20.877123	122.103948
	8.766604	26.903150	77.508121	22.629836	127.041107
	8.692720	24.035993	79.562167	23.426524	127.024684
	8.668092	23.876707	76.402096	21.833149	122.111952
	8.643463	22.920988	74.506055	21.195799	118.622841
	8.446438	26.425291	76.718104	21.992486	125.135881
	8.717348	22.920988	75.928086	23.745199	122.594273
	8.889745	22.920988	74.980065	19.443086	117.344139
	8.717348	24.354567	76.718104	22.789174	123.861844
	9.062142	24.513853	75.296072	21.036461	120.846386
	9.185282	22.443129	75.454076	21.195799	119.093003
	8.963629	21.965269	76.718104	19.602424	118.285796
	8.791232	25.947432	78.298139	24.541886	128.787456
	9.062142	24.991712	75.296072	23.107848	123.395633
	8.840489	22.920988	76.244093	21.992486	121.157567
	9.111398	22.283842	73.400030	20.877123	116.560996
	8.791232	22.920988	75.138069	21.673811	119.732867
	8.865117	19.098112	72.136002	17.690373	108.924487
	8.939001	24.991712	77.192114	21.355136	123.538963
	9.160654	20.531690	74.190048	22.789174	117.510912
	8.963629	24.195280	79.720170	21.833149	125.748599
	9.357679	19.257399	72.768016	18.168386	110.193801
	8.741976	23.876707	77.192114	22.629836	123.698657
	8.939001	22.761702	76.560100	22.311161	121.632963
	8.717348	25.628858	77.666125	23.585861	126.880844
	8.791232	24.991712	77.508121	22.789174	125.289007
	8.766604	25.628858	78.614146	25.019899	129.262903
	8.840489	21.805983	79.088156	21.833149	122.727287
	8.594207	23.876707	76.560100	21.833149	122.269956
	8.865117	23.717420	76.876107	21.833149	122.426676
	8.914373	24.673140	77.982132	23.745199	126.400470
	8.717348	22.602415	74.980065	20.717786	118.300266
	8.865117	24.195280	76.560100	21.036461	121.791841
	8.741976	22.283842	74.506055	22.948511	119.738407
	9.111398	23.080275	75.454076	21.355136	119.889486
	8.766604	23.239561	76.876107	21.833149	121.948816
	9.037514	22.124555	75.612079	20.717786	118.454420
	8.815860	22.920988	75.770083	21.514474	120.205544
	9.086770	21.009550	72.926020	18.646399	112.581968
	8.791232	22.920988	75.928086	21.195799	120.044872
	9.160654	19.735258	70.871974	20.717786	111.325018
	8.840489	22.602415	75.770083	21.514474	119.886971
	9.012885	22.761702	74.190048	20.239773	117.191523
	8.963629	23.717420	77.034110	22.470499	123.222030
	8.889745	20.531690	74.506055	19.921099	114.958844
	8.717348	23.080275	79.562167	20.877123	123.519565
	9.086770	23.717420	75.770083	22.311161	121.798664
	8.594207	21.965269	77.192114	19.761761	118.919144
	8.865117	24.354567	77.666125	23.426524	125.447215
	8.717348	24.832426	76.402096	23.585861	124.820383
	9.012885	28.018156	79.088156	24.860561	131.966873
	8.643463	21.168837	74.506055	19.761761	115.436652
	8.741976	22.761702	75.138069	20.877123	118.776893
	8.741976	22.602415	75.928086	22.311161	120.841662
	8.643463	24.673140	77.034110	19.921099	121.628349
	8.446438	23.239561	77.350118	22.629836	123.219515
	8.741976	24.354567	76.244093	23.267186	123.865846
	8.692720	21.487409	75.612079	21.355136	118.454624
	8.668092	25.150999	75.612079	21.514474	122.277551
	8.741976	20.213117	73.874041	19.443086	113.530244
	8.741976	23.558134	76.402096	23.267186	123.227417
	8.963629	21.009550	75.454076	18.327724	114.791349
	8.963629	25.469572	76.560100	21.514474	123.544146
	9.234539	18.460966	72.768016	18.009048	109.238031
	8.889745	24.035993	76.560100	22.151823	122.747917
	9.037514	21.009550	72.926020	20.080436	114.016006
	8.815860	25.150999	75.928086	20.877123	121.956209
	8.939001	22.124555	75.928086	23.585861	121.638503
	8.766604	24.513853	77.192114	20.717786	122.423753
	8.865117	22.920988	76.402096	22.151823	121.474908
	8.741976	25.150999	77.824128	20.717786	123.692913
	8.741976	22.443129	76.718104	22.311161	121.472393
	8.741976	24.035993	78.614146	21.673811	124.323950
	8.741976	24.673140	77.824128	23.904536	126.401803
	8.815860	24.354567	74.190048	21.992486	120.537100
	8.668092	22.443129	75.770083	21.195799	119.409009
	8.815860	20.690977	73.242027	20.239773	114.172777
	8.668092	25.310286	76.560100	23.585861	125.456247
	8.939001	22.602415	74.822062	19.283748	116.708225
	8.865117	22.443129	76.718104	20.399111	119.560343
	8.815860	21.328123	75.454076	23.426524	120.208722
	8.692720	25.310286	78.456142	23.904536	127.670963
	9.012885	20.372404	73.242027	18.487061	112.101492
	8.717348	19.098112	70.397964	18.009048	107.505124
	9.012885	19.416685	73.084023	18.965074	111.465782
	8.865117	23.876707	75.928086	21.673811	121.478604
	9.136026	23.080275	75.296072	18.487061	116.863408
	8.889745	23.398847	77.666125	24.382548	125.447521
	9.111398	22.761702	79.404163	23.107848	125.273713
	8.815860	23.558134	76.718104	21.833149	122.109386
	9.062142	25.310286	77.350118	22.151823	124.812227
	8.668092	23.080275	77.034110	22.470499	122.584884
	8.766604	22.443129	75.454076	20.877123	118.774328
	8.717348	22.283842	74.822062	20.080436	117.186340
	8.668092	25.310286	75.770083	23.745199	124.825567
	8.865117	22.761702	78.140135	22.629836	123.531672
	8.741976	24.195280	77.508121	23.107848	124.811250
	8.963629	21.328123	76.560100	20.558449	118.446672
	8.766604	23.558134	76.560100	21.514474	121.632708
	8.889745	21.487409	72.610012	18.965074	113.062495
	8.766604	23.398847	76.876107	22.311161	122.586116
	8.889745	21.487409	73.400030	23.585861	118.473300
	8.766604	24.035993	76.718104	22.629836	123.383933
	8.963629	22.602415	76.402096	21.673811	120.678323
	8.914373	26.266004	80.194181	25.338573	131.798758
	9.308423	22.283842	76.244093	21.673811	120.201746
	9.160654	20.850264	78.140135	19.602424	118.592822
	9.062142	24.991712	77.192114	23.745199	125.929025
	8.766604	23.717420	78.772149	21.195799	123.685368
	8.865117	22.920988	76.718104	22.311161	121.950253
	8.692720	23.558134	76.244093	22.151823	121.954050
	8.865117	23.717420	76.244093	21.833149	121.794662
	8.865117	22.602415	76.560100	21.833149	120.995664
	8.717348	22.920988	76.402096	21.036461	120.359545
	9.012885	22.443129	77.192114	23.426524	123.061766
	8.988257	24.832426	77.824128	20.239773	122.896327
	8.741976	19.735258	74.190048	19.124411	113.049717
	8.643463	24.035993	76.086090	22.470499	122.592582
	8.668092	19.575972	73.716037	19.443086	112.735095
	8.988257	25.947432	77.034110	22.948511	125.930053
	9.012885	19.894544	72.452009	19.124411	111.470965
	8.766604	24.195280	77.192114	23.745199	125.132593
	8.939001	21.805983	78.298139	20.558449	120.662570
	8.668092	27.699583	78.930153	24.223211	130.852947
	8.692720	21.965269	75.296072	22.470499	119.731840
	8.889745	24.513853	77.350118	22.629836	124.493807
	8.840489	22.920988	75.612079	22.151823	120.684890
	8.914373	24.354567	76.402096	21.355136	122.111799
	8.840489	21.646696	75.928086	23.107848	120.682631
	8.643463	24.354567	77.666125	21.195799	123.216490
	8.668092	23.558134	77.192114	22.311161	123.061409
	8.963629	26.425291	80.826194	23.107848	130.359334
	8.815860	21.965269	76.402096	21.673811	120.041177
	9.111398	22.124555	75.454076	19.283748	116.862380
	9.111398	22.602415	75.770083	21.673811	120.046309
	9.185282	21.009550	71.029978	18.168386	110.207914
	8.618835	24.195280	78.930153	23.745199	126.870631
	8.963629	22.602415	75.454076	22.470499	120.526989
	8.815860	24.832426	77.034110	23.267186	125.133723
	9.086770	24.035993	76.718104	21.036461	121.790558
	8.815860	23.080275	78.298139	21.355136	122.733549
	9.086770	22.920988	77.508121	25.019899	125.449008
	8.840489	24.195280	76.876107	23.107848	124.179236
	8.643463	25.310286	76.560100	21.673811	123.544197
	8.495695	21.965269	75.454076	21.992486	119.411831
	8.815860	23.558134	76.402096	22.311161	122.271391
	9.209910	21.805983	75.770083	20.239773	117.815838
	8.791232	24.195280	77.192114	19.761761	121.149155
	9.012885	22.283842	77.824128	24.223211	124.331181
	8.766604	22.920988	75.928086	22.470499	121.319573
	8.815860	24.195280	78.456142	22.948511	125.599933
	8.963629	22.124555	70.397964	17.531036	110.053555
	8.939001	21.009550	76.402096	21.992486	119.404133
	8.939001	29.292448	81.774216	27.250623	138.317287
	8.865117	23.558134	75.454076	19.602424	118.614633
	8.963629	24.991712	76.402096	23.426524	124.820333
	9.160654	19.575972	77.824128	20.239773	117.639873
	8.766604	25.628858	79.088156	24.382548	129.099563
	8.963629	23.717420	79.246160	23.107848	126.071429
	8.865117	26.106718	77.508121	22.789174	126.404013
	8.865117	22.443129	75.612079	21.195799	119.251006
	8.865117	22.443129	75.770083	21.036461	119.249672
	8.865117	23.080275	75.770083	24.701224	123.551580
	8.865117	22.920988	74.980065	20.877123	118.778176
	8.643463	24.035993	77.350118	22.151823	123.537935
	9.209910	22.443129	77.666125	21.833149	121.942402
	8.840489	23.398847	76.560100	21.514474	121.473421
	8.889745	23.398847	77.508121	22.311161	123.218130
	8.668092	24.195280	77.508121	23.585861	125.289262
	8.963629	23.080275	77.192114	22.629836	122.902225
	8.618835	24.832426	77.982132	23.107848	125.922406
	8.865117	22.602415	76.876107	22.470499	121.949021
	8.717348	25.947432	77.508121	23.585861	127.041414
	8.618835	22.761702	76.876107	21.992486	121.630295
	8.766604	23.080275	80.036177	21.673811	124.790262
	8.643463	23.876707	77.824128	23.904536	125.605371
	8.914373	21.328123	75.770083	21.355136	118.453342
	8.618835	25.310286	79.246160	24.541886	129.098331
	9.086770	23.080275	76.244093	22.151823	121.476191
	8.741976	22.602415	75.612079	20.877123	119.091617
	9.062142	21.965269	74.980065	20.239773	117.185108
	8.865117	24.195280	78.772149	23.107848	126.075277
	9.357679	19.735258	74.032044	19.761761	113.529063
	9.062142	23.717420	79.088156	21.992486	124.798063
	9.259167	21.328123	76.086090	21.195799	118.610011
	8.889745	22.761702	75.612079	22.151823	120.525604
	8.939001	22.283842	76.718104	21.992486	120.994432
	8.717348	23.080275	75.928086	21.833149	120.841509
	8.889745	24.673140	76.086090	21.833149	122.592378
	8.914373	22.602415	76.876107	23.267186	122.745708
	8.914373	24.991712	80.036177	22.629836	127.657725
	8.741976	22.920988	77.508121	22.151823	122.580933
	8.643463	26.106718	80.984198	24.063874	131.154790
	8.766604	23.558134	78.456142	23.585861	125.600137
	8.815860	23.558134	76.560100	21.036461	121.154695
	8.889745	21.487409	76.244093	21.514474	119.245976
	8.939001	25.310286	76.244093	23.267186	124.821564
	8.791232	20.213117	75.296072	19.921099	115.430288
	8.717348	23.717420	77.034110	22.470499	123.222030
	9.111398	21.009550	75.454076	20.717786	117.181412
	8.963629	27.540297	79.246160	23.585861	130.372317
	8.791232	19.098112	76.086090	18.487061	113.671263
	8.668092	23.876707	77.666125	23.745199	125.288030
	8.618835	21.328123	75.296072	22.789174	119.413369
	8.692720	26.106718	77.508121	21.833149	125.447988
	8.668092	22.443129	76.718104	22.311161	121.472393
	8.766604	23.080275	75.928086	21.992486	121.000847
	8.520323	23.717420	77.824128	22.470499	124.012047
	8.865117	23.558134	77.192114	20.080436	120.830684
	8.815860	20.850264	75.770083	21.673811	118.294157
	9.062142	20.372404	73.874041	20.717786	114.964231
	8.889745	22.920988	76.718104	21.673811	121.312903
	9.357679	24.354567	75.454076	21.992486	121.801128
	8.914373	21.168837	76.402096	20.877123	118.448056
	9.209910	22.124555	76.402096	21.514474	120.041125
	8.939001	23.080275	77.666125	20.239773	120.986173
	9.086770	25.628858	78.140135	25.338573	129.107567
	8.963629	23.080275	79.562167	23.745199	126.387640
	8.914373	22.920988	77.192114	21.992486	122.105588
	9.062142	22.602415	76.718104	21.673811	120.994330
	8.865117	24.991712	77.508121	22.311161	124.810994
	8.865117	21.805983	76.244093	21.036461	119.086536
	8.741976	23.239561	76.876107	21.673811	121.789479
	9.037514	20.372404	74.190048	22.311161	116.873613
	8.939001	25.628858	76.244093	21.992486	123.865437
	9.062142	20.053831	75.612079	20.877123	116.543033
	8.840489	23.558134	78.772149	22.151823	124.482107
	9.283795	21.965269	76.560100	21.195799	119.721168
	9.308423	23.398847	75.928086	21.036461	120.363395
	9.283795	19.894544	74.980065	21.036461	115.911070
	8.988257	22.602415	75.296072	21.514474	119.412961
	9.136026	23.239561	77.982132	22.948511	124.170203
	8.963629	24.991712	77.192114	22.470499	124.654325
	9.308423	21.965269	78.140135	22.311161	122.416565
	8.939001	25.150999	80.194181	23.904536	129.249716
	8.988257	22.124555	76.876107	20.877123	119.877786
	8.889745	23.717420	76.560100	23.267186	123.544707
	8.963629	22.602415	75.928086	25.179236	123.709737
	9.062142	22.920988	77.666125	22.311161	122.898274
	8.815860	23.080275	76.718104	21.833149	121.631527
	9.234539	23.558134	75.928086	21.036461	120.522681
	8.939001	21.646696	76.402096	21.355136	119.403928
	9.382307	22.124555	79.720170	21.036461	122.881187
	9.160654	24.991712	79.404163	25.019899	129.415774
	9.234539	22.920988	77.350118	22.311161	122.582267
	9.185282	22.920988	77.192114	21.992486	122.105588
	8.988257	19.575972	73.874041	20.239773	113.689786
	8.791232	23.876707	77.666125	25.497911	127.040743
	8.963629	22.443129	76.244093	21.036461	119.723682
	8.865117	23.717420	77.192114	22.789174	123.698708
	9.062142	23.080275	78.930153	24.541886	126.552313
	8.865117	23.558134	79.088156	21.036461	123.682751
	8.988257	22.920988	79.404163	23.745199	126.070350
	8.889745	25.628858	77.350118	23.426524	126.405500
	9.111398	22.602415	77.508121	22.789174	122.899710
	8.741976	24.195280	76.560100	21.992486	122.747866
	9.012885	23.398847	77.508121	23.426524	124.333492
	9.136026	23.558134	76.718104	23.267186	123.543424
	8.815860	21.487409	76.560100	21.514474	119.561983
	8.988257	21.328123	75.612079	20.558449	117.498650
	8.963629	21.965269	79.720170	22.789174	124.474613
	9.406936	22.920988	74.506055	18.965074	116.392116
	9.185282	22.920988	79.088156	21.514474	123.523618
	9.406936	21.646696	76.560100	21.992486	120.199282
	9.259167	23.239561	77.034110	23.904536	124.178207
	9.283795	20.531690	74.664058	19.124411	114.320160
	9.062142	21.009550	75.770083	20.558449	117.338081
	9.185282	20.850264	77.666125	20.877123	119.393512
	8.939001	21.009550	76.244093	21.195799	118.449442
	9.505448	24.195280	78.298139	20.558449	123.051867
	9.209910	22.602415	77.034110	21.992486	121.629012
	9.308423	22.443129	75.928086	23.426524	121.797738
	8.865117	22.920988	77.508121	21.992486	122.421595
	9.136026	23.239561	75.454076	22.470499	121.164135
	8.668092	22.602415	76.244093	22.629836	121.476344
	8.988257	24.035993	79.404163	23.904536	127.344693
	8.889745	22.283842	79.088156	21.195799	122.567797
	9.111398	24.035993	77.350118	23.904536	125.290647
	8.840489	22.283842	78.140135	22.311161	122.735138
	9.062142	24.035993	78.930153	23.585861	126.552007
	8.963629	22.920988	75.770083	22.151823	120.842894
	8.939001	25.788145	78.456142	23.585861	127.830148
	8.939001	22.283842	77.192114	22.151823	121.627780
	8.914373	23.558134	77.982132	22.311161	123.851427
	8.963629	22.920988	76.876107	25.179236	124.976331
	8.939001	24.832426	79.562167	21.673811	126.068404
	9.086770	22.124555	77.982132	22.470499	122.577186
	8.914373	23.080275	78.772149	22.470499	124.322922
	9.037514	21.168837	75.770083	20.558449	117.497367
	8.569579	25.947432	76.876107	22.470499	125.294037
	9.012885	18.938826	74.980065	20.558449	114.477339
	8.668092	21.328123	74.348051	20.717786	116.393960
	8.791232	20.053831	74.190048	19.283748	113.527627
	8.815860	24.832426	77.192114	22.470499	124.495039
	9.062142	19.894544	77.034110	20.717786	117.646441
	8.914373	24.195280	78.140135	22.948511	125.283926
	8.914373	21.168837	74.822062	20.558449	116.549346
	9.209910	26.106718	77.666125	22.789174	126.562016
	9.283795	19.098112	73.558034	22.470499	115.126644
	9.160654	24.035993	77.982132	22.470499	124.488624
	9.259167	21.487409	76.876107	21.833149	120.196665
	9.086770	24.991712	78.140135	22.470499	125.602346
	9.012885	20.531690	76.718104	21.195799	118.445593
	8.865117	25.310286	80.668191	23.585861	129.564338
	9.086770	20.372404	75.770083	21.195799	117.338285
	8.840489	25.310286	75.612079	24.223211	125.145576
	9.160654	22.283842	78.614146	23.585861	124.483848
	8.889745	21.965269	75.770083	21.355136	119.090488
	9.062142	23.876707	77.982132	23.745199	125.604037
	8.914373	23.876707	76.560100	21.673811	122.110618
	8.963629	22.283842	78.140135	22.470499	122.894476
	9.086770	24.195280	78.614146	24.860561	127.669987
	9.185282	23.398847	79.562167	21.673811	124.634825
	8.815860	24.354567	78.140135	23.107848	125.602550
	8.594207	21.965269	75.612079	21.833149	119.410496
	8.692720	21.168837	75.612079	20.877123	117.658039
	8.815860	22.283842	75.454076	21.355136	119.093054
	8.717348	22.443129	77.034110	22.789174	122.266413
	8.791232	24.354567	77.508121	24.063874	125.926561
	8.963629	21.646696	76.718104	20.399111	118.763911
	8.520323	23.080275	77.982132	23.107848	124.170255
	8.865117	21.805983	78.456142	21.833149	122.095273
	8.717348	24.673140	79.878174	24.382548	128.933862
	8.495695	24.035993	77.982132	23.107848	125.125974
	8.692720	23.080275	77.666125	22.789174	123.535573
	9.012885	22.283842	76.244093	23.107848	121.635783
	8.963629	22.124555	75.928086	19.921099	117.973740
	9.160654	20.372404	75.138069	20.239773	115.750246
	8.594207	22.124555	80.036177	21.833149	123.993881
	8.815860	18.938826	73.874041	18.965074	111.777940
	8.914373	21.965269	77.982132	20.877123	120.824524
	9.209910	21.646696	76.876107	22.151823	120.674627
	8.717348	24.035993	77.824128	24.860561	126.720683
	8.865117	21.168837	76.086090	20.399111	117.654037
	8.741976	23.717420	77.666125	22.311161	123.694706
	9.037514	20.372404	76.244093	21.514474	118.130970
	8.865117	23.876707	78.614146	23.267186	125.758038
	8.815860	21.646696	78.614146	21.036461	121.297303
	8.840489	23.876707	78.614146	23.107848	125.598701
	9.160654	21.646696	75.928086	23.267186	120.841968
	8.889745	22.443129	76.876107	21.514474	120.833709
	8.939001	21.965269	76.402096	23.426524	121.793889
	8.815860	24.832426	77.034110	22.151823	124.018360
	9.012885	20.850264	75.928086	20.558449	117.336798
	8.889745	21.328123	75.928086	19.602424	116.858633
	8.988257	21.487409	76.876107	24.701224	123.064740
	9.012885	22.602415	78.772149	19.921099	121.295662
	8.520323	20.531690	76.560100	21.195799	118.287589
	8.889745	21.965269	78.140135	21.992486	122.097890
	8.914373	24.991712	79.878174	24.860561	129.730447
	9.283795	26.425291	78.140135	23.267186	127.832612
	8.668092	22.761702	78.298139	22.789174	123.849014
	9.234539	21.328123	76.086090	23.745199	121.159411
	8.865117	25.150999	79.878174	24.223211	129.252384
	9.086770	22.124555	75.454076	19.921099	117.499730
	9.012885	22.761702	79.562167	22.629836	124.953704
	9.185282	21.009550	75.928086	20.877123	117.814760
	9.012885	22.443129	76.718104	21.992486	121.153718
	9.111398	23.080275	75.454076	19.602424	118.136774
	9.259167	21.646696	76.560100	25.179236	123.386032
	9.308423	21.009550	75.138069	20.717786	116.865405
	8.988257	22.920988	77.982132	22.789174	123.692293
	9.406936	21.328123	76.244093	20.239773	117.811989
	8.914373	21.965269	77.508121	22.629836	122.103226
	9.308423	21.168837	75.612079	20.558449	117.339364
	9.012885	21.805983	76.718104	21.195799	119.719885
	9.234539	22.761702	74.506055	24.223211	121.490967
	8.988257	21.805983	77.192114	21.514474	120.512570
	9.062142	22.602415	77.508121	22.311161	122.421697
	9.037514	22.602415	77.350118	22.311161	122.263694
	8.914373	23.398847	76.244093	21.036461	120.679401
	8.988257	21.009550	80.036177	20.877123	121.922850
	8.988257	24.195280	78.456142	25.019899	127.671321
	8.963629	23.717420	78.772149	22.470499	124.960068
	8.865117	24.513853	77.350118	22.311161	124.175132
	8.988257	19.894544	74.506055	20.558449	114.959047
	9.111398	21.965269	76.244093	21.514474	119.723836
	8.988257	17.505247	71.977998	16.415674	105.898919
	8.939001	25.469572	76.876107	22.470499	124.816178
	9.259167	22.761702	78.772149	25.019899	126.553749
	8.889745	25.628858	81.458208	23.426524	130.513590
	9.086770	19.416685	74.664058	19.921099	114.001842
	8.791232	22.443129	75.138069	20.717786	118.298983
	9.086770	21.965269	77.982132	23.426524	123.373924
	9.062142	22.602415	75.928086	21.355136	119.885637
	9.037514	21.805983	76.560100	21.992486	120.358569
	8.791232	25.628858	77.666125	23.426524	126.721507
	8.766604	21.965269	79.720170	22.151823	123.837263
	9.136026	23.558134	78.772149	23.267186	125.597469
	8.988257	23.717420	77.350118	22.789174	123.856712
	9.062142	24.673140	77.666125	22.629836	124.969100
	8.766604	23.558134	77.192114	23.585861	124.336109
	8.717348	24.195280	79.088156	23.585861	126.869297
	8.963629	23.558134	77.350118	24.382548	125.290800
	9.209910	24.354567	76.244093	18.965074	119.563733
	8.889745	21.168837	77.034110	21.992486	120.195433
	8.963629	21.965269	80.036177	21.833149	123.834594
	8.939001	23.239561	77.666125	22.629836	123.535522
	9.259167	21.965269	79.562167	19.761761	121.289197
	9.136026	23.558134	78.140135	23.267186	124.965455
	9.185282	19.257399	73.558034	21.195799	114.011231
	8.766604	22.920988	76.718104	21.514474	121.153565
	9.037514	21.646696	75.928086	21.355136	118.929918
	8.865117	23.717420	76.876107	23.107848	123.701376
	9.086770	22.443129	78.140135	22.470499	123.053762
	9.062142	24.035993	79.878174	22.311161	126.225328
	9.160654	21.646696	77.824128	24.701224	124.172047
	9.037514	25.310286	77.192114	22.789174	125.291573
	8.939001	21.965269	77.982132	22.470499	122.417899
	9.062142	21.965269	75.138069	21.195799	118.299136
	8.766604	22.124555	77.508121	22.470499	122.103175
	9.062142	23.717420	77.666125	22.311161	123.694706
	8.963629	21.805983	76.876107	21.514474	120.196563
	9.234539	21.487409	75.770083	23.426524	120.684016
	8.815860	21.328123	80.194181	21.833149	123.355452
	9.160654	22.602415	76.402096	20.877123	119.881635
	8.865117	22.443129	77.192114	21.992486	121.627729
	9.209910	19.098112	74.032044	18.965074	112.095230
	9.209910	22.920988	76.876107	21.833149	121.630244
	9.160654	20.850264	75.612079	19.602424	116.064766
	8.988257	22.761702	77.350118	24.223211	124.335030
	9.259167	19.575972	75.770083	19.283748	114.629803
	8.963629	23.239561	78.298139	22.948511	124.486210
	9.283795	22.283842	77.982132	21.514474	121.780447
	8.865117	21.168837	76.244093	20.877123	118.290053
	9.160654	21.646696	74.980065	20.717786	117.344547
	8.766604	22.920988	77.666125	21.355136	121.942249
	9.062142	23.080275	76.718104	25.338573	125.136952
	8.840489	23.239561	77.192114	22.948511	123.380186
	8.914373	23.080275	78.456142	23.107848	124.644265
	8.840489	22.283842	79.246160	23.107848	124.637850
	8.643463	24.513853	77.982132	22.470499	124.966483
	9.160654	23.239561	80.826194	23.585861	127.651616
	9.185282	22.602415	77.192114	22.629836	122.424365
	8.963629	21.965269	76.244093	21.833149	120.042510
	8.889745	24.195280	76.876107	21.514474	122.585860
	8.963629	23.876707	76.560100	22.151823	122.588630
	8.939001	22.920988	77.034110	22.151823	122.106922
	9.012885	22.283842	76.876107	21.514474	120.674423
	8.889745	24.832426	77.508121	22.151823	124.492370
	9.136026	21.168837	77.034110	22.789174	120.992120
	8.865117	22.124555	78.456142	19.761761	120.342458
	9.185282	21.965269	76.876107	21.992486	120.833862
	9.012885	25.628858	76.560100	23.107848	125.296807
	9.086770	20.372404	76.086090	21.514474	117.972967
	8.766604	22.602415	76.402096	21.833149	120.837660
	9.259167	18.938826	73.874041	18.487061	111.299927
	9.185282	26.584578	79.246160	24.701224	130.531960
	9.136026	20.372404	77.666125	20.877123	118.915652
	9.012885	27.858870	80.194181	24.541886	132.594936
	9.136026	21.009550	74.822062	21.195799	117.027410
	9.259167	28.177443	80.510188	25.019899	133.707529
	9.259167	19.894544	74.664058	20.558449	115.117051
	9.086770	23.239561	77.192114	21.833149	122.264824
	9.406936	20.053831	75.770083	21.514474	117.338387
	8.988257	24.035993	77.508121	19.921099	121.465213
	9.382307	20.690977	77.666125	21.992486	120.349588
	9.480820	24.673140	80.194181	24.063874	128.931194
	9.259167	22.761702	78.456142	22.629836	123.847679
	9.160654	26.584578	77.192114	21.833149	125.609840
	9.209910	20.531690	77.034110	20.877123	118.442924
	9.357679	24.195280	78.140135	25.497911	127.833326
	8.865117	23.080275	77.824128	21.992486	122.896889
	9.160654	23.558134	76.402096	21.195799	121.156029
	9.259167	21.487409	78.140135	22.948511	122.576055
	8.865117	22.761702	78.140135	22.151823	123.053660
	9.037514	22.124555	78.930153	21.355136	122.409844
	8.963629	24.195280	77.508121	23.904536	125.607937
	9.579332	22.602415	77.508121	23.745199	123.855734
	8.914373	22.761702	77.666125	21.992486	122.420312
	8.914373	22.283842	75.612079	22.629836	120.525757
	9.012885	23.398847	77.508121	22.789174	123.696142
	8.963629	21.646696	77.192114	20.877123	119.715933
	8.914373	22.443129	78.772149	21.195799	122.411076
	8.791232	22.602415	77.824128	23.745199	124.171742
	8.889745	24.195280	76.560100	22.311161	123.066541
	9.234539	20.213117	76.560100	20.399111	117.172329
	9.086770	21.168837	74.190048	20.877123	116.236007
	8.643463	22.761702	77.034110	21.992486	121.788298
	9.456192	21.965269	74.664058	19.602424	116.231751
	9.111398	22.602415	77.666125	21.195799	121.464338
	9.209910	20.372404	76.086090	21.992486	118.450980
	9.283795	24.991712	82.880240	25.179236	133.051189
	9.111398	23.717420	77.982132	21.833149	123.532701
	8.939001	23.239561	78.614146	23.585861	125.439568
	9.357679	18.620252	74.506055	19.443086	112.569393
	9.185282	21.805983	75.770083	20.558449	118.134513
	9.209910	22.124555	75.612079	19.602424	117.339058
	9.259167	24.195280	78.456142	25.975924	128.627345
	9.406936	19.894544	75.454076	20.558449	115.907069
	8.914373	22.124555	76.876107	21.195799	120.196461
	9.382307	21.168837	77.824128	21.195799	120.188763
	9.062142	22.761702	77.824128	22.151823	122.737653
	9.160654	20.850264	75.454076	21.036461	117.340800
	8.791232	21.965269	76.560100	21.355136	119.880505
	9.308423	19.098112	73.874041	22.470499	115.442651
	9.062142	24.035993	76.560100	20.877123	121.473217
	9.234539	21.328123	76.560100	21.673811	119.562034
	8.865117	25.310286	80.036177	24.541886	129.888349
	9.308423	21.805983	77.192114	21.673811	120.671908
	9.037514	23.876707	80.510188	21.514474	125.901368
	9.283795	24.035993	80.510188	26.931949	131.478130
	8.766604	22.761702	78.456142	23.267186	124.485029
	8.963629	22.602415	78.930153	23.585861	125.118428
	9.086770	24.195280	76.402096	21.673811	122.271187
	9.012885	21.805983	77.666125	22.470499	121.942606
	8.865117	22.920988	77.508121	21.833149	122.262258
	9.308423	22.124555	80.826194	21.673811	124.624561
	9.160654	22.283842	76.876107	21.992486	121.152435
	9.037514	21.965269	78.456142	24.541886	124.963297
	8.963629	23.080275	77.824128	22.151823	123.056226
	8.914373	21.965269	77.192114	22.789174	121.946557
	9.062142	23.717420	76.876107	21.833149	122.426676
	9.062142	22.124555	77.034110	21.673811	120.832477
	9.136026	21.965269	76.560100	20.558449	119.083818
	8.939001	22.761702	77.982132	22.311161	123.054994
	9.209910	24.035993	79.404163	22.948511	126.388667
	8.766604	22.443129	78.456142	22.470499	123.369769
	9.086770	21.965269	75.612079	21.195799	118.773146
	8.692720	23.080275	78.140135	22.311161	123.531571
	9.062142	24.991712	76.244093	21.833149	123.068954
	8.889745	21.168837	76.244093	20.399111	117.812040
	8.963629	20.531690	75.138069	21.195799	116.865557
	8.840489	24.035993	78.456142	21.195799	123.687934
	9.160654	24.354567	76.718104	20.717786	121.790456
	9.037514	22.920988	82.090223	22.789174	127.800384
	8.840489	21.965269	76.718104	20.877123	119.560496
	8.692720	25.469572	80.668191	22.470499	128.608261
	9.111398	24.354567	77.824128	21.514474	123.693168
	9.086770	24.832426	78.772149	25.019899	128.624473
	9.012885	24.035993	77.982132	21.514474	123.532599
	8.865117	28.336729	80.510188	23.904536	132.751453
	9.185282	27.062437	76.560100	19.761761	123.384298
	8.495695	29.451735	82.406230	23.745199	135.603162
	8.692720	32.000318	84.302272	23.107848	139.410438
	8.347926	37.256773	86.198314	25.975924	149.431010
	8.150901	40.442503	84.934286	27.250623	152.627412
	7.633710	45.221098	91.886440	28.365986	165.473523
	7.559826	46.336103	90.464408	28.365986	165.166497
	7.288916	50.796125	92.360450	29.640686	172.797261
	7.239660	53.503996	93.940485	29.162674	176.607155
	6.747097	54.300428	97.258559	30.118699	181.677685
	6.968750	56.849013	97.574566	32.190086	186.613664
	6.353047	58.123305	96.310537	32.827436	187.261278
	6.648585	60.194029	97.732569	31.234061	189.160659
	6.032881	54.619002	93.150468	29.162674	176.932143
	6.106766	54.619002	94.256492	29.322011	178.197505
	5.638831	53.822569	93.308471	28.684661	175.815701
	5.934369	53.026136	91.096422	24.860561	168.983119
	5.638831	49.362547	90.938419	27.091286	167.392252
	5.761972	47.132536	92.676457	25.657249	165.466241
	5.663459	44.583952	86.040310	22.151823	152.776085
	5.392550	45.061811	87.304338	23.107848	155.473998
	5.589575	41.876081	85.408296	22.789174	150.073551
	5.515691	40.761076	83.670258	21.514474	145.945807
	5.466434	38.531065	82.090223	19.124411	139.745699
	5.515691	37.575346	81.142202	22.789174	141.506721
	5.737344	32.318891	76.718104	16.096999	125.133994
	5.614203	32.159605	78.614146	17.371699	128.145449
	5.515691	31.363172	79.088156	17.531036	127.982365
	5.220153	30.885313	77.824128	16.893686	125.603127
	5.269409	29.133161	74.348051	14.503624	117.984836
	5.146269	26.425291	74.032044	13.228924	113.686259
